Sensor Name: tty5
Initial Resistance: 89 ohms
Start Time: 2024-11-04 23:30:05
Time (s), Voltage (V)
1.48, 0.0000
1.58, 0.0000
1.68, 0.0000
1.78, 0.0000
1.88, 0.0000
1.98, 0.0000
2.09, 0.0000
2.19, 0.0000
2.29, 0.0000
2.39, 0.0000
2.49, 0.0000
2.59, 0.0000
2.69, 0.0000
2.79, 0.0000
2.89, 0.0000
2.99, 0.0000
3.09, 0.0000
3.20, 0.0000
3.30, 0.0000
3.40, 0.0000
3.51, 0.0000
3.60, 0.0000
3.70, 0.0000
3.80, 0.0000
3.91, 0.0000
4.00, 0.0000
4.11, 0.0000
4.21, 0.0000
4.31, 0.0000
4.41, 0.0000
4.51, 0.0000
4.62, 0.0000
4.72, 0.0000
4.81, 0.0000
4.92, 0.0000
5.02, 0.0000
5.12, 0.0000
5.22, 0.0000
5.32, 0.0000
5.42, 0.0000
5.53, 0.0000
5.63, 0.0000
5.73, 0.0000
5.83, 0.0000
5.92, 0.0000
6.03, 0.0000
6.13, 0.0000
6.23, 0.0000
6.33, 0.0000
6.43, 0.0000
6.53, 0.0000
6.63, 0.0000
6.74, 0.0000
6.84, 0.0000
6.94, 0.0000
7.04, 0.0000
7.14, 0.0000
7.24, 0.0000
7.35, 0.0000
7.45, 0.0000
7.55, 0.0000
7.65, 0.0000
7.75, 0.0000
7.85, 0.0000
7.95, 0.0000
8.05, 0.0000
8.15, 0.0000
8.25, 0.0000
8.36, 0.0000
8.45, 0.0000
8.56, 0.0000
8.66, 0.0049
8.76, 0.0000
8.86, 0.0000
8.96, 0.0000
9.07, 0.0000
9.16, 0.0000
9.27, 0.0000
9.36, 0.0000
9.47, 0.0000
9.57, 0.0000
9.67, 0.0000
9.77, 0.0000
9.87, 0.0000
9.98, 0.0000
10.08, 0.0000
10.18, 0.0000
10.28, 0.0000
10.38, 0.0000
10.48, 0.0000
10.58, 0.0000
10.68, 0.0000
10.78, 0.0000
10.89, 0.0000
10.99, 0.0000
11.08, 0.0000
11.19, 0.0000
11.29, 0.0000
11.40, 0.0000
11.50, 0.0000
11.60, 0.0000
11.69, 0.0000
11.80, 0.0000
11.90, 0.0000
12.00, 0.0000
12.10, 0.0000
12.20, 0.0000
12.30, 0.0000
12.40, 0.0000
12.51, 0.0000
12.61, 0.0000
12.71, 0.0000
12.81, 0.0000
12.91, 0.0000
13.01, 0.0000
13.11, 0.0000
13.21, 0.0000
13.31, 0.0000
13.41, 0.0000
13.51, 0.0000
13.62, 0.0000
13.72, 0.0000
13.82, 0.0000
13.92, 0.0000
14.02, 0.0000
14.12, 0.0000
14.23, 0.0000
14.33, 0.0000
14.43, 0.0000
14.53, 0.0000
14.63, 0.0000
14.73, 0.0000
14.83, 0.0000
14.93, 0.0000
15.04, 0.0000
15.13, 0.0000
15.24, 0.0000
15.34, 0.0000
15.44, 0.0000
15.54, 0.0000
15.64, 0.0000
15.74, 0.0000
15.84, 0.0000
15.94, 0.0000
16.04, 0.0000
16.14, 0.0000
16.25, 0.0000
16.35, 0.0000
16.45, 0.0000
16.56, 0.0000
16.66, 0.0000
16.75, 0.0000
16.86, 0.0000
16.96, 0.0000
17.06, 0.0000
17.16, 0.0000
17.26, 0.0000
17.36, 0.0000
17.46, 0.0000
17.56, 0.0000
17.66, 0.0000
17.76, 0.0000
17.87, 0.0000
17.97, 0.0000
18.07, 0.0000
18.17, 0.0000
18.27, 0.0000
18.37, 0.0000
18.48, 0.0000
18.57, 0.0000
18.68, 0.0000
18.78, 0.0000
18.88, 0.0000
18.98, 0.0000
19.08, 0.0000
19.18, 0.0000
19.28, 0.0000
19.39, 0.0000
19.48, 0.0000
19.59, 0.0000
19.69, 0.0000
19.79, 0.0000
19.89, 0.0000
19.99, 0.0000
20.09, 0.0000
20.19, 0.0000
20.30, 0.0000
20.39, 0.0000
20.50, 0.0000
20.60, 0.0000
20.70, 0.0000
20.80, 0.0000
20.91, 0.0000
21.01, 0.0000
21.10, 0.0000
21.21, 0.0000
21.31, 0.0000
21.41, 0.0000
21.51, 0.0000
21.61, 0.0000
21.71, 0.0000
21.82, 0.0000
21.92, 0.0000
22.01, 0.0000
22.11, 0.0000
22.22, 0.0000
22.32, 0.0000
22.42, 0.0000
22.52, 0.0000
22.62, 0.0000
22.72, 0.0000
22.82, 0.0000
22.93, 0.0000
23.03, 0.0000
23.13, 0.0000
23.23, 0.0000
23.33, 0.0000
23.43, 0.0000
23.53, 0.0000
23.63, 0.0000
23.73, 0.0000
23.84, 0.0000
23.94, 0.0000
24.04, 0.0000
24.14, 0.0000
24.24, 0.0000
24.34, 0.0000
24.45, 0.0000
24.55, 0.0000
24.64, 0.0000
24.75, 0.0000
24.85, 0.0000
24.95, 0.0000
25.05, 0.0000
25.15, 0.0000
25.26, 0.0000
25.35, 0.0000
25.45, 0.0000
25.56, 0.0000
25.66, 0.0000
25.76, 0.0000
25.86, 0.0000
25.96, 0.0000
26.06, 0.0000
26.16, 0.0000
26.26, 0.0000
26.37, 0.0000
26.47, 0.0000
26.57, 0.0000
26.67, 0.0000
26.77, 0.0000
26.87, 0.0000
26.97, 0.0000
27.08, 0.0000
27.18, 0.0000
27.28, 0.0000
27.41, 0.0000
27.48, 0.0000
27.58, 0.0000
27.68, 0.0000
27.78, 0.0000
27.88, 0.0000
27.99, 0.0000
28.09, 0.0000
28.19, 0.0000
28.29, 0.0000
28.39, 0.0000
28.49, 0.0000
28.59, 0.0000
28.69, 0.0000
28.80, 0.0000
28.90, 0.0000
29.00, 0.0000
29.10, 0.0000
29.20, 0.0000
29.30, 0.0000
29.40, 0.0000
29.50, 0.0000
29.61, 0.0000
29.71, 0.0000
29.81, 0.0000
29.91, 0.0000
30.01, 0.0000
30.11, 0.0000
30.21, 0.0000
30.31, 0.0000
30.42, 0.0000
30.52, 0.0000
30.61, 0.0000
30.72, 0.0000
30.82, 0.0000
30.92, 0.0000
31.03, 0.0000
31.12, 0.0000
31.23, 0.0000
31.32, 0.0000
31.43, 0.0000
31.52, 0.0000
31.63, 0.0000
31.73, 0.0000
31.83, 0.0000
31.93, 0.0000
32.04, 0.0000
32.14, 0.0000
32.24, 0.0000
32.34, 0.0000
32.44, 0.0000
32.54, 0.0000
32.64, 0.0000
32.74, 0.0000
32.84, 0.0000
32.94, 0.0000
33.05, 0.0000
33.14, 0.0000
33.25, 0.0000
33.35, 0.0000
33.45, 0.0000
33.55, 0.0000
33.65, 0.0000
33.75, 0.0000
33.86, 0.0000
33.95, 0.0000
34.06, 0.0000
34.16, 0.0000
34.26, 0.0000
34.36, 0.0000
34.46, 0.0000
34.56, 0.0000
34.66, 0.0000
34.76, 0.0000
34.87, 0.0000
34.97, 0.0000
35.07, 0.0000
35.17, 0.0000
35.27, 0.0000
35.37, 0.0000
35.47, 0.0000
35.57, 0.0000
35.67, 0.0000
35.78, 0.0000
35.88, 0.0000
35.98, 0.0000
36.08, 0.0000
36.18, 0.0000
36.28, 0.0000
36.39, 0.0000
36.49, 0.0000
36.59, 0.0000
36.69, 0.0000
36.79, 0.0000
36.89, 0.0000
36.99, 0.0000
37.09, 0.0000
37.19, 0.0000
37.30, 0.0000
37.40, 0.0000
37.50, 0.0000
37.60, 0.0000
37.70, 0.0000
37.80, 0.0000
37.90, 0.0000
38.00, 0.0000
38.10, 0.0000
38.20, 0.0000
38.31, 0.0000
38.40, 0.0000
38.51, 0.0000
38.61, 0.0000
38.71, 0.0000
38.81, 0.0000
38.92, 0.0000
39.01, 0.0000
39.11, 0.0000
39.22, 0.0000
39.32, 0.0000
39.42, 0.0000
39.52, 0.0000
39.62, 0.0000
39.72, 0.0000
39.83, 0.0000
39.92, 0.0000
40.03, 0.0000
40.13, 0.0000
40.23, 0.0000
40.33, 0.0000
40.43, 0.0000
40.54, 0.0000
40.64, 0.0000
40.73, 0.0000
40.84, 0.0000
40.94, 0.0000
41.04, 0.0000
41.14, 0.0000
41.24, 0.0000
41.34, 0.0000
41.44, 0.0000
41.54, 0.0000
41.64, 0.0000
41.74, 0.0000
41.85, 0.0000
41.95, 0.0000
42.05, 0.0000
42.15, 0.0000
42.25, 0.0000
42.35, 0.0000
42.46, 0.0000
42.56, 0.0000
42.65, 0.0000
42.76, 0.0000
42.86, 0.0000
42.96, 0.0000
43.06, 0.0000
43.16, 0.0000
43.26, 0.0000
43.36, 0.0000
43.47, 0.0000
43.57, 0.0000
43.67, 0.0000
43.77, 0.0000
43.88, 0.0000
43.98, 0.0000
44.08, 0.0000
44.18, 0.0000
44.28, 0.0000
44.38, 0.0000
44.48, 0.0000
44.58, 0.0000
44.68, 0.0000
44.78, 0.0000
44.88, 0.0000
44.98, 0.0000
45.09, 0.0000
45.19, 0.0000
45.29, 0.0000
45.39, 0.0000
45.50, 0.0000
45.59, 0.0000
45.69, 0.0000
45.80, 0.0000
45.90, 0.0000
46.00, 0.0000
46.10, 0.0000
46.20, 0.0000
46.30, 0.0000
46.40, 0.0000
46.50, 0.0000
46.60, 0.0000
46.71, 0.0000
46.81, 0.0000
46.90, 0.0000
47.01, 0.0000
47.11, 0.0000
47.21, 0.0000
47.31, 0.0000
47.42, 0.0000
47.51, 0.0000
47.62, 0.0000
47.72, 0.0000
47.82, 0.0000
47.92, 0.0000
48.02, 0.0000
48.12, 0.0000
48.23, 0.0000
48.33, 0.0000
48.42, 0.0000
48.53, 0.0000
48.63, 0.0000
48.73, 0.0000
48.83, 0.0000
48.93, 0.0000
49.03, 0.0000
49.13, 0.0000
49.24, 0.0000
49.34, 0.0000
49.43, 0.0000
49.54, 0.0000
49.64, 0.0000
49.74, 0.0000
49.84, 0.0000
49.94, 0.0000
50.04, 0.0000
50.14, 0.0000
50.25, 0.0000
50.35, 0.0000
50.45, 0.0000
50.55, 0.0000
50.65, 0.0000
50.75, 0.0000
50.85, 0.0000
50.96, 0.0000
51.05, 0.0000
51.15, 0.0000
51.26, 0.0000
51.36, 0.0000
51.46, 0.0000
51.56, 0.0000
51.66, 0.0000
51.77, 0.0000
51.86, 0.0000
51.97, 0.0000
52.07, 0.0000
52.17, 0.0000
52.27, 0.0000
52.37, 0.0000
52.47, 0.0000
52.57, 0.0000
52.68, 0.0000
52.78, 0.0000
52.88, 0.0000
52.98, 0.0000
53.08, 0.0000
53.18, 0.0000
53.28, 0.0000
53.38, 0.0000
53.48, 0.0000
53.59, 0.0000
53.69, 0.0000
53.79, 0.0000
53.89, 0.0000
53.99, 0.0000
54.09, 0.0000
54.19, 0.0000
54.29, 0.0000
54.39, 0.0000
54.50, 0.0000
54.59, 0.0000
54.70, 0.0000
54.80, 0.0000
54.90, 0.0000
55.00, 0.0000
55.10, 0.0000
55.20, 0.0000
55.31, 0.0000
55.41, 0.0000
55.51, 0.0000
55.61, 0.0000
55.71, 0.0000
55.81, 0.0000
55.91, 0.0000
56.01, 0.0000
56.12, 0.0000
56.22, 0.0000
56.32, 0.0000
56.42, 3.6217
56.52, 3.6266
56.62, 3.6315
56.72, 3.6315
56.82, 3.6315
56.92, 3.6315
57.03, 3.6315
57.13, 0.0000
57.23, 0.0000
57.33, 0.0000
57.43, 0.0000
57.53, 0.0000
57.63, 0.0000
57.73, 0.0000
57.83, 0.0000
57.94, 0.0000
58.04, 3.6315
58.14, 3.6413
58.24, 3.6413
58.34, 3.6461
58.44, 3.6461
58.55, 3.6364
58.65, 0.0000
58.75, 0.0000
58.85, 0.0000
58.95, 0.0000
59.05, 0.0000
59.15, 0.0000
59.25, 0.0000
59.36, 0.0000
59.45, 0.0000
59.56, 0.0000
59.66, 0.0000
59.76, 3.6266
59.86, 3.6217
59.96, 3.6217
60.07, 3.6217
60.17, 3.6315
60.26, 3.6315
60.37, 0.0000
60.47, 0.0000
60.57, 0.0000
60.67, 0.0000
60.77, 0.0000
60.87, 0.0000
60.97, 0.0000
61.08, 0.0000
61.18, 0.0000
61.28, 0.0000
61.38, 0.0000
61.48, 3.6315
61.58, 3.6315
61.68, 3.6413
61.78, 3.6364
61.88, 3.6413
61.99, 0.0000
62.09, 0.0000
62.19, 0.0000
62.29, 0.0000
62.39, 0.0000
62.50, 0.0000
62.60, 0.0000
62.70, 0.0000
62.80, 0.0000
62.90, 0.0049
63.00, 0.0000
63.10, 0.0000
63.20, 3.6168
63.30, 3.6266
63.41, 3.6217
63.51, 3.6217
63.61, 3.6315
63.71, 3.6315
63.81, 0.0000
63.91, 0.0000
64.01, 0.0000
64.12, 0.0000
64.22, 0.0000
64.31, 0.0000
64.42, 0.0000
64.52, 0.0000
64.62, 0.0000
64.72, 0.0000
64.82, 0.0000
64.92, 3.6364
65.02, 3.6315
65.13, 3.6413
65.22, 3.6413
65.33, 3.6413
65.43, 3.6413
65.54, 0.0000
65.63, 0.0000
65.73, 0.0000
65.84, 0.0000
65.94, 0.0000
66.04, 0.0000
66.14, 0.0000
66.24, 0.0000
66.34, 0.0000
66.44, 0.0000
66.54, 0.0000
66.64, 0.0000
66.75, 3.6168
66.84, 3.6217
66.95, 3.6217
67.05, 3.6217
67.15, 3.6315
67.25, 0.0000
67.35, 0.0000
67.46, 0.0000
67.56, 3.6364
67.66, 0.0000
67.76, 0.0000
67.86, 0.0000
67.96, 0.0000
68.06, 0.0000
68.16, 0.0000
68.26, 0.0000
68.36, 3.6315
68.46, 3.6315
68.57, 3.6364
68.67, 3.6461
68.77, 3.6413
68.87, 3.6413
68.97, 3.6461
69.07, 3.6413
69.18, 0.0000
69.28, 0.0000
69.38, 0.0000
69.48, 0.0000
69.58, 0.0000
69.68, 0.0000
69.79, 0.0000
69.89, 0.0000
69.98, 0.0000
70.09, 0.0000
70.19, 0.0000
70.29, 3.6217
70.39, 3.6217
70.49, 3.6266
70.59, 3.6217
70.69, 3.6364
70.80, 0.0147
70.89, 0.0000
71.00, 0.0000
71.10, 0.0000
71.20, 0.0000
71.30, 0.0000
71.40, 0.0000
71.51, 0.0049
71.61, 0.0000
71.70, 0.0098
71.81, 0.0000
71.91, 3.6364
72.01, 3.6364
72.11, 3.6315
72.21, 3.6413
72.31, 3.6413
72.42, 0.0000
72.52, 0.0098
72.62, 0.0000
72.72, 0.0000
72.82, 0.0000
72.92, 0.0000
73.02, 0.0000
73.12, 0.0000
73.22, 0.0000
73.32, 0.0000
73.43, 0.0000
73.53, 0.0000
73.63, 3.6266
73.73, 3.6266
73.83, 3.6266
73.94, 3.6266
74.03, 3.6266
74.14, 0.0000
74.24, 0.0000
74.34, 0.0000
74.44, 0.0000
74.54, 0.0000
74.64, 0.0000
74.74, 0.0000
74.84, 0.0000
74.95, 0.0196
75.05, 0.0049
75.15, 0.0000
75.25, 0.0000
75.35, 3.6413
75.45, 3.6364
75.55, 3.6364
75.65, 3.6461
75.75, 3.6461
75.86, 3.6510
75.96, 0.0000
76.06, 0.0000
76.16, 0.0000
76.26, 0.0000
76.36, 3.0352
76.46, 2.6344
76.56, 2.3509
76.66, 1.8817
76.77, 1.6276
76.87, 3.6461
76.97, 3.6510
77.07, 3.6510
77.17, 3.6364
77.27, 3.6266
77.37, 3.6364
77.47, 3.6266
77.58, 3.6364
77.68, 3.6461
77.78, 3.4702
77.88, 3.1183
77.98, 2.7468
78.09, 2.4096
78.19, 2.1163
78.29, 1.6862
78.39, 3.6461
78.49, 3.6364
78.59, 3.6413
78.69, 3.6413
78.80, 3.6364
78.89, 3.6413
79.00, 3.6364
79.10, 3.6461
79.20, 3.6510
79.30, 3.6461
79.40, 3.6608
79.51, 3.6510
79.60, 3.6510
79.71, 3.6413
79.81, 3.6510
79.91, 3.6510
80.01, 3.6510
80.11, 3.6510
80.21, 3.6510
80.31, 3.6510
80.42, 3.6510
80.51, 3.6559
80.62, 3.6413
80.72, 3.6364
80.82, 3.6315
80.93, 3.6266
81.03, 3.6315
81.12, 3.6315
81.23, 3.6413
81.33, 3.6413
81.43, 3.6413
81.53, 3.6413
81.63, 3.6364
81.74, 3.6413
81.83, 3.6461
81.94, 3.6413
82.04, 3.6413
82.14, 3.6413
82.25, 3.6413
82.34, 3.6413
82.44, 3.6413
82.54, 3.6413
82.65, 3.6510
82.75, 3.6510
82.85, 3.6510
82.96, 3.6510
83.05, 3.6510
83.15, 3.6461
83.26, 3.6510
83.35, 3.6510
83.46, 3.6510
83.56, 3.6559
83.66, 3.6510
83.76, 3.6559
83.86, 3.6608
83.97, 3.6510
84.07, 3.6510
84.17, 3.6364
84.27, 3.6364
84.37, 3.6315
84.47, 3.6315
84.57, 3.6364
84.68, 3.6413
84.77, 3.6413
84.88, 3.6413
84.97, 3.6413
85.08, 3.6364
85.18, 3.6413
85.28, 3.6364
85.38, 3.6413
85.48, 3.6413
85.59, 3.6364
85.69, 3.6413
85.79, 3.6364
85.89, 3.6413
85.99, 3.6413
86.09, 3.6413
86.20, 3.6510
86.30, 3.6559
86.40, 3.6559
86.50, 3.6461
86.60, 3.6413
86.70, 3.6461
86.81, 3.6559
86.90, 3.6461
87.00, 3.6461
87.11, 3.6461
87.21, 3.6510
87.31, 3.6510
87.41, 3.6461
87.51, 3.6559
87.61, 3.6510
87.71, 3.6315
87.81, 3.6315
87.92, 3.6266
88.02, 3.6266
88.12, 3.6364
88.22, 3.6364
88.32, 3.6315
88.42, 3.6413
88.52, 3.6315
88.63, 3.6461
88.73, 3.6413
88.83, 3.6413
88.93, 3.6413
89.03, 3.6413
89.13, 3.6413
89.24, 3.6413
89.34, 3.6413
89.44, 3.6364
89.54, 3.6413
89.64, 3.6413
89.74, 3.6510
89.84, 3.6510
89.94, 3.6510
90.04, 3.6461
90.15, 3.6510
90.25, 3.6510
90.35, 3.6461
90.45, 3.6559
90.55, 3.6510
90.65, 3.6559
90.76, 3.6510
90.86, 3.6510
90.96, 3.6510
91.06, 3.6510
91.16, 3.6315
91.26, 3.6266
91.36, 3.6315
91.47, 3.6315
91.57, 3.2307
91.67, 0.5474
91.77, 0.4350
91.87, 0.2884
91.97, 1.9648
92.07, 3.6413
92.17, 3.6413
92.28, 3.6364
92.38, 3.6413
92.48, 3.6413
92.58, 3.6413
92.68, 3.6413
92.78, 3.6413
92.88, 3.6413
92.98, 3.6413
93.09, 3.6413
93.19, 0.0000
93.28, 0.8456
93.39, 0.0000
93.49, 1.3294
93.59, 3.4604
93.70, 3.6559
93.80, 3.6510
93.90, 3.6461
94.00, 3.6510
94.10, 3.6510
94.20, 3.6510
94.30, 3.6461
94.40, 3.6510
94.50, 2.1408
94.61, 3.5630
94.71, 3.5484
94.81, 0.5523
94.91, 1.6080
95.01, 0.4497
95.11, 0.9140
95.21, 3.6413
95.31, 3.6413
95.41, 3.6413
95.52, 3.6364
95.62, 3.6413
95.72, 3.6461
95.82, 3.6413
95.92, 3.6364
96.02, 3.6413
96.12, 3.6364
96.23, 3.6315
96.33, 3.6364
96.43, 3.6413
96.53, 3.6413
96.63, 3.6413
96.73, 3.6461
96.83, 3.6510
96.93, 3.6510
97.04, 3.6461
97.14, 3.6510
97.24, 3.6461
97.34, 3.6413
97.44, 3.6510
97.54, 3.6510
97.64, 3.6461
97.75, 3.6510
97.85, 3.6461
97.95, 3.6510
98.05, 3.6413
98.15, 3.6315
98.25, 3.6315
98.36, 3.6266
98.45, 3.6315
98.55, 3.6266
98.66, 3.6364
98.76, 3.6364
98.86, 3.6364
98.96, 3.6315
99.06, 3.6364
99.17, 3.6413
99.27, 3.6413
99.37, 3.6413
99.47, 3.6413
99.57, 3.6413
99.67, 3.6364
99.77, 3.6364
99.87, 3.6364
99.97, 3.6364
100.08, 3.6413
100.18, 3.6461
100.28, 3.6413
100.38, 3.6461
100.48, 3.6461
100.59, 3.6413
100.68, 3.6510
100.79, 3.6510
100.89, 3.6510
100.99, 3.6510
101.09, 3.6510
101.19, 3.6510
101.29, 3.6510
101.40, 3.6510
101.50, 3.6461
101.60, 3.6510
101.70, 3.6315
101.80, 3.6315
101.90, 3.6266
102.00, 3.6266
102.10, 3.6266
102.21, 3.6413
102.31, 3.6413
102.41, 3.6364
102.51, 3.6364
102.62, 3.6364
102.71, 3.6364
102.81, 3.6413
102.91, 3.6364
103.02, 3.6364
103.12, 3.6364
103.22, 3.6413
103.32, 3.6413
103.42, 3.6413
103.52, 3.6364
103.62, 3.6413
103.73, 0.0000
103.83, 0.0000
103.93, 0.0000
104.03, 0.0000
104.13, 3.6461
104.23, 3.6510
104.34, 0.0000
104.44, 0.0000
104.54, 0.0000
104.64, 0.0000
104.74, 0.0000
104.84, 0.0000
104.94, 0.0000
105.04, 0.0000
105.14, 0.0000
105.24, 0.0000
105.35, 0.0000
105.44, 0.0000
105.55, 0.0000
105.65, 0.0000
105.75, 0.0000
105.85, 0.0000
105.95, 0.0000
106.05, 0.0000
106.16, 0.0000
106.26, 0.0000
106.36, 0.0000
106.46, 0.0000
106.56, 0.0000
106.66, 0.0000
106.76, 0.0000
106.87, 0.0000
106.97, 0.0000
107.07, 0.0000
107.16, 0.0000
107.27, 0.0000
107.37, 0.0000
107.47, 0.0000
107.58, 0.0000
107.67, 0.0000
107.77, 0.0000
107.87, 0.0000
107.98, 0.0000
108.08, 0.0000
108.18, 0.0000
108.28, 0.0049
108.38, 0.0098
108.48, 0.0196
108.58, 0.3030
108.68, 0.4154
108.79, 0.4741
108.88, 0.5132
108.99, 0.5376
109.09, 0.5621
109.19, 0.5621
109.29, 0.5474
109.39, 0.5327
109.49, 0.5230
109.60, 0.5181
109.70, 0.5132
109.80, 0.5083
109.90, 0.5132
110.00, 0.5083
110.10, 0.5083
110.20, 0.5132
110.30, 0.5083
110.41, 0.5132
110.51, 0.5132
110.61, 0.5083
110.71, 0.5083
110.81, 0.5083
110.92, 0.4985
111.01, 0.5034
111.11, 0.4985
111.22, 0.4936
111.32, 0.4985
111.42, 0.4985
111.52, 0.4985
111.62, 0.4985
111.72, 0.5034
111.82, 0.5034
111.93, 0.5034
112.03, 0.5034
112.14, 0.5034
112.23, 0.5034
112.33, 0.5034
112.43, 0.4985
112.54, 0.4936
112.63, 0.4936
112.74, 0.4888
112.84, 0.4888
112.94, 0.4936
113.04, 0.4888
113.15, 0.4936
113.25, 0.4985
113.34, 0.4936
113.45, 0.5034
113.55, 0.5034
113.65, 0.4985
113.75, 0.5034
113.85, 0.4936
113.96, 0.4936
114.05, 0.4936
114.16, 0.4888
114.26, 0.4888
114.36, 0.4888
114.46, 0.4888
114.56, 0.4888
114.66, 0.4888
114.77, 0.4936
114.86, 0.4936
114.97, 0.4936
115.07, 0.4985
115.17, 0.4985
115.27, 0.4985
115.37, 0.4985
115.48, 0.4936
115.58, 0.4936
115.68, 0.4985
115.78, 0.4936
115.88, 0.4888
115.98, 0.4936
116.08, 0.4888
116.18, 0.4888
116.28, 0.4888
116.38, 0.4936
116.49, 0.4888
116.59, 0.4936
116.69, 0.4985
116.79, 0.4985
116.89, 0.4936
116.99, 0.4936
117.10, 0.4936
117.20, 0.4888
117.30, 0.4888
117.40, 0.4888
117.51, 0.4839
117.61, 0.4888
117.71, 0.4888
117.81, 0.4888
117.91, 0.4888
118.01, 0.4936
118.11, 0.4888
118.21, 0.4936
118.31, 0.4985
118.41, 0.4936
118.52, 0.4936
118.61, 0.4888
118.71, 0.4888
118.82, 0.4888
118.92, 0.4839
119.02, 0.4839
119.13, 0.4888
119.23, 0.4936
119.33, 0.4888
119.42, 0.4888
119.53, 0.4888
119.63, 0.4888
119.73, 0.4936
119.83, 0.4888
119.94, 0.4888
120.03, 0.4936
120.14, 0.4888
120.24, 0.4839
120.34, 0.4888
120.44, 0.4888
120.54, 0.4839
120.64, 0.4888
120.74, 0.4839
120.85, 0.4839
120.95, 0.4888
121.05, 0.4888
121.15, 0.4888
121.26, 0.4888
121.36, 0.4888
121.46, 0.4936
121.55, 0.4936
121.66, 0.4888
121.76, 0.4888
121.86, 0.4888
121.96, 0.4839
122.06, 0.4839
122.16, 0.4839
122.27, 0.4839
122.37, 0.4839
122.47, 0.4839
122.57, 0.4839
122.67, 0.4888
122.77, 0.4985
122.87, 0.4936
122.97, 0.4936
123.07, 0.4936
123.29, 0.4888
123.30, 0.4888
