Sensor Name: ttx_103
Initial Resistance: 90 ohms
Start Time: 2024-11-04 23:37:12
Time (s), Voltage (V)
1.48, 1.2219
1.59, 1.2268
1.68, 1.2268
1.78, 1.2317
1.88, 1.2317
1.99, 1.2317
2.08, 1.2317
2.19, 1.2366
2.28, 1.2414
2.39, 1.2463
2.49, 1.2414
2.59, 1.2366
2.70, 1.2366
2.79, 1.2366
2.90, 1.2317
2.99, 1.2268
3.10, 1.2268
3.20, 1.2268
3.30, 1.2317
3.41, 1.2317
3.51, 1.2317
3.60, 1.2414
3.71, 1.2414
3.81, 1.2414
3.91, 1.2414
4.01, 1.2414
4.11, 1.2366
4.21, 1.2366
4.31, 1.2317
4.42, 1.2317
4.52, 1.2463
4.62, 1.2366
4.72, 1.2366
4.82, 1.2317
4.92, 1.2366
5.02, 1.2317
5.12, 1.2366
5.23, 1.2414
5.33, 1.2414
5.43, 1.2414
5.53, 1.2366
5.63, 1.2366
5.73, 1.2317
5.83, 1.2317
5.94, 1.2317
6.04, 1.2317
6.14, 1.2317
6.25, 1.2317
6.34, 1.2366
6.44, 1.2366
6.55, 1.2317
6.64, 1.2414
6.75, 1.2414
6.85, 1.2414
6.95, 1.2414
7.05, 1.2366
7.16, 1.2317
7.25, 1.2317
7.35, 1.2317
7.45, 1.2317
7.56, 1.2317
7.66, 1.2317
7.76, 1.2317
7.86, 1.2366
7.96, 1.2414
8.06, 1.2512
8.16, 1.2463
8.27, 1.2414
8.37, 1.2414
8.47, 1.2414
8.57, 1.2317
8.67, 1.2268
8.78, 1.2317
8.87, 1.2268
8.97, 1.2317
9.08, 1.2366
9.18, 1.2366
9.28, 1.2414
9.38, 1.2414
9.48, 1.2463
9.59, 1.2414
9.69, 1.2414
9.79, 1.2414
9.89, 1.2414
9.99, 1.2268
10.09, 1.2317
10.19, 1.2366
10.30, 1.2366
10.40, 1.2317
10.50, 1.2366
10.60, 1.2317
10.70, 1.2317
10.80, 1.2317
10.90, 1.2317
11.01, 1.2317
11.10, 1.2414
11.20, 1.2317
11.30, 1.2268
11.41, 1.2268
11.51, 1.2708
11.61, 1.3050
11.72, 1.3490
11.82, 1.3832
11.92, 1.4076
12.02, 1.4125
12.12, 1.4272
12.22, 1.4370
12.32, 1.4467
12.42, 1.4467
12.52, 1.4565
12.62, 1.4565
12.72, 1.4516
12.83, 1.4516
12.93, 1.4467
13.03, 1.4516
13.13, 1.4516
13.23, 1.4467
13.33, 1.4467
13.44, 1.4467
13.54, 1.4418
13.64, 1.4418
13.74, 1.4418
13.84, 1.4467
13.95, 1.4516
14.05, 1.4516
14.15, 1.4467
14.24, 1.4467
14.35, 1.4467
14.45, 1.4418
14.55, 1.4418
14.65, 1.4370
14.75, 1.4418
14.86, 1.4418
14.96, 1.4418
15.06, 1.4565
15.16, 1.4467
15.26, 1.4516
15.36, 1.4516
15.46, 1.4516
15.56, 1.4467
15.66, 1.4467
15.76, 1.4467
15.86, 1.4467
15.97, 1.4418
16.07, 1.4370
16.17, 1.4370
16.29, 1.4418
16.37, 1.4418
16.48, 1.4418
16.58, 1.4418
16.68, 1.4467
16.78, 1.4467
16.88, 1.4467
16.98, 1.4516
17.08, 1.4467
17.19, 1.4467
17.29, 1.4467
17.38, 1.4418
17.49, 1.4370
17.59, 1.4418
17.69, 1.4370
17.79, 1.4370
17.89, 1.4418
18.00, 1.4418
18.10, 1.4418
18.20, 1.4418
18.30, 1.4467
18.40, 1.4516
18.51, 1.4663
18.60, 1.4565
18.71, 1.4467
18.81, 1.4418
18.91, 1.4418
19.01, 1.4272
19.11, 1.4370
19.21, 1.4370
19.31, 1.4370
19.41, 1.4370
19.51, 1.4370
19.62, 1.4418
19.72, 1.4418
19.82, 1.4418
19.92, 1.4418
20.02, 1.4467
20.13, 1.4467
20.23, 1.4370
20.33, 1.4418
20.43, 1.4370
20.53, 1.4272
20.63, 1.4321
20.73, 1.4321
20.84, 1.4370
20.94, 1.4370
21.04, 1.4370
21.14, 1.4418
21.24, 1.4467
21.34, 1.4467
21.44, 1.4467
21.54, 1.4467
21.64, 1.4418
21.75, 1.4418
21.85, 1.4370
21.95, 1.4370
22.05, 1.4467
22.15, 1.4418
22.26, 1.4370
22.35, 1.4370
22.46, 1.4370
22.56, 1.4321
22.66, 1.4370
22.76, 1.4418
22.86, 1.4467
22.96, 1.4418
23.06, 1.4418
23.17, 1.4370
23.26, 1.4370
23.36, 1.4321
23.47, 1.4321
23.57, 1.4321
23.67, 1.4370
23.77, 1.4321
23.88, 1.4321
23.97, 1.4321
24.08, 1.4370
24.18, 1.4370
24.28, 1.4418
24.38, 1.4418
24.48, 1.4418
24.59, 1.4418
24.68, 1.4418
24.79, 1.4370
24.89, 1.4321
24.99, 1.4321
25.09, 1.4321
25.19, 1.4321
25.29, 1.4321
25.39, 1.4321
25.50, 1.4516
25.60, 1.4418
25.70, 1.4418
25.80, 1.4418
25.90, 1.4418
26.01, 1.4321
26.10, 1.4370
26.20, 1.4321
26.31, 1.4321
26.41, 1.4321
26.51, 1.4272
26.61, 1.4272
26.71, 1.4272
26.81, 1.4272
26.92, 1.4321
27.02, 1.4321
27.12, 1.4321
27.22, 1.4370
27.32, 1.4418
27.42, 1.4418
27.52, 1.4321
27.63, 1.4370
27.72, 1.4321
27.83, 1.4321
27.93, 1.4321
28.03, 1.4272
28.13, 1.4321
28.24, 1.4321
28.33, 1.4321
28.44, 1.4321
28.54, 1.4321
28.64, 1.4370
28.74, 1.4418
28.84, 1.4370
28.94, 1.4418
29.05, 1.4565
29.14, 1.4418
29.25, 1.4370
29.35, 1.4321
29.45, 1.4272
29.55, 1.4223
29.65, 1.4272
29.75, 1.4272
29.85, 1.4321
29.95, 1.4321
30.06, 1.4321
30.16, 1.4370
30.26, 1.4370
30.36, 1.4418
30.46, 1.4370
30.56, 1.4321
30.66, 1.4321
30.77, 1.4321
30.87, 1.4272
30.97, 1.4272
31.07, 1.4174
31.17, 1.4223
31.28, 1.4272
31.37, 1.4272
31.47, 1.4272
31.58, 1.4321
31.68, 1.4321
31.78, 1.4370
31.88, 1.4370
31.98, 1.4321
32.08, 1.4370
32.19, 1.4321
32.29, 1.4272
32.39, 1.4223
32.49, 1.4223
32.59, 1.4272
32.69, 1.4223
32.79, 1.4223
32.89, 1.4223
33.00, 1.4223
33.10, 1.4174
33.20, 1.4223
33.30, 1.4272
33.40, 1.4272
33.51, 1.4272
33.60, 1.4223
33.70, 1.4174
33.81, 1.4125
33.91, 1.4125
34.01, 1.4125
34.11, 1.4125
34.21, 1.4125
34.31, 1.4076
34.41, 1.4125
34.52, 1.4027
34.62, 1.4076
34.72, 1.4125
34.82, 1.4125
34.92, 1.4125
35.04, 1.4125
35.12, 1.4076
35.23, 1.4076
35.33, 1.4027
35.43, 1.3978
35.53, 1.3930
35.63, 1.3978
35.73, 1.3930
35.84, 1.3930
35.94, 1.4027
36.03, 1.4076
36.14, 1.4027
36.24, 1.3978
36.34, 1.3978
36.45, 1.3978
36.55, 1.3930
36.65, 1.3881
36.75, 1.3881
36.85, 1.3881
36.95, 1.3832
37.05, 1.3832
37.15, 1.3783
37.25, 1.3783
37.35, 1.3783
37.46, 1.3783
37.56, 1.3881
37.66, 1.3832
37.76, 1.3832
37.86, 1.3881
37.97, 1.3832
38.07, 1.3783
38.17, 1.3783
38.27, 1.3783
38.37, 1.3734
38.47, 1.3734
38.57, 1.3685
38.67, 1.3685
38.78, 1.3685
38.88, 1.3685
38.97, 1.3685
39.08, 1.3685
39.18, 1.3685
39.28, 1.3685
39.38, 1.3685
39.48, 1.3685
39.59, 1.3783
39.68, 1.3734
39.79, 1.3636
39.89, 1.3636
39.99, 1.3587
40.09, 1.3490
40.19, 1.3490
40.29, 1.3490
40.40, 1.3490
40.49, 1.3539
40.60, 1.3539
40.70, 1.3539
40.80, 1.3539
40.90, 1.3587
41.01, 1.3539
41.10, 1.3587
41.21, 1.3539
41.31, 1.3490
41.41, 1.3490
41.51, 1.3441
41.61, 1.3392
41.71, 1.3392
41.81, 1.3392
41.92, 1.3392
42.01, 1.3441
42.12, 1.3441
42.22, 1.3441
42.33, 1.3441
42.43, 1.3441
42.53, 1.3490
42.62, 1.3490
42.73, 1.3441
42.83, 1.3441
42.93, 1.3392
43.03, 1.3587
43.13, 1.3392
43.24, 1.3392
43.33, 1.3343
43.44, 1.3343
43.54, 1.3245
43.64, 1.3294
43.74, 1.3294
43.84, 1.3343
43.94, 1.3392
44.05, 1.3343
44.15, 1.3392
44.25, 1.3392
44.35, 1.3343
44.45, 1.3343
44.55, 1.3294
44.66, 1.3245
44.76, 1.3245
44.85, 1.3245
44.95, 1.3245
45.06, 1.3148
45.16, 1.3196
45.26, 1.3196
45.36, 1.3245
45.46, 1.3294
45.57, 1.3294
45.66, 1.3294
45.77, 1.3294
45.87, 1.3294
45.97, 1.3245
46.07, 1.3245
46.17, 1.3196
46.27, 1.3196
46.37, 1.3148
46.48, 1.3148
46.58, 1.3294
46.68, 1.3196
46.78, 1.3196
46.88, 1.3196
46.98, 1.3245
47.08, 1.3148
47.18, 1.3196
47.29, 1.3196
47.39, 1.3196
47.49, 1.3196
47.59, 1.3196
47.69, 1.3148
47.79, 1.3099
47.89, 1.3148
47.99, 1.3099
48.10, 1.3148
48.20, 1.3099
48.30, 1.3099
48.40, 1.3148
48.50, 1.3099
48.61, 1.3148
48.71, 1.3196
48.80, 1.3148
48.91, 1.3196
49.01, 1.3148
49.11, 1.3148
49.21, 1.3099
49.32, 1.3099
49.41, 1.3050
49.51, 1.3050
49.62, 1.3099
49.72, 1.3050
49.82, 1.3099
49.92, 1.3050
50.03, 1.3099
50.12, 1.3196
50.22, 1.3148
50.32, 1.3148
50.43, 1.3148
50.53, 1.3099
50.63, 1.3050
50.73, 1.3050
50.84, 1.3001
50.93, 1.3001
51.04, 1.3001
51.14, 1.3001
51.24, 1.3001
51.34, 1.3001
51.44, 1.3001
51.54, 1.3099
51.64, 1.3001
51.75, 1.3050
51.85, 1.3050
51.95, 1.3099
52.05, 1.2952
52.15, 1.3001
52.25, 1.3001
52.35, 1.3001
52.45, 1.2952
52.56, 1.2952
52.66, 1.3001
52.76, 1.2952
52.86, 1.2952
52.96, 1.3001
53.06, 1.3001
53.16, 1.3001
53.27, 1.3001
53.37, 1.3050
53.47, 1.3050
53.57, 1.3196
53.67, 1.3099
53.77, 1.3001
53.88, 1.3001
53.97, 1.2952
54.08, 1.2854
54.18, 1.2903
54.28, 1.2903
54.38, 1.2952
54.48, 1.2903
54.58, 1.2952
54.68, 1.2903
54.79, 1.2952
54.89, 1.3001
54.99, 1.3001
55.09, 1.3050
55.19, 1.3001
55.29, 1.2952
55.39, 1.2952
55.49, 1.2903
55.60, 1.2854
55.70, 1.2854
55.80, 1.2854
55.90, 1.2903
56.00, 1.2854
56.10, 1.2903
56.20, 1.2903
56.30, 1.2903
56.41, 1.2903
56.51, 1.2952
56.61, 1.2952
56.71, 1.2952
56.81, 1.2952
56.91, 1.2903
57.02, 1.2854
57.12, 1.2952
57.22, 1.2854
57.32, 1.2805
57.42, 1.2805
57.52, 1.2805
57.62, 1.2757
57.72, 1.2805
57.82, 1.2854
57.93, 1.2805
58.03, 1.2854
58.13, 1.2903
58.23, 1.2854
58.33, 1.2903
58.43, 1.2805
58.54, 1.2854
58.63, 1.2757
58.74, 1.2757
58.84, 1.2708
58.94, 1.2708
59.05, 1.2708
59.14, 1.2659
59.25, 1.2708
59.35, 1.2708
59.45, 1.2757
59.55, 1.2757
59.65, 1.2805
59.76, 1.2805
59.85, 1.2757
59.95, 1.2757
60.06, 1.2708
60.16, 1.2659
60.26, 1.2659
60.36, 1.2659
60.46, 1.2659
60.56, 1.2805
60.66, 1.2708
60.77, 1.2708
60.87, 1.2659
60.97, 1.2708
61.07, 1.2659
61.17, 1.2708
61.27, 1.2708
61.37, 1.2708
61.48, 1.2659
61.58, 1.2659
61.68, 1.2610
61.78, 1.2561
61.88, 1.2561
61.98, 1.2610
62.08, 1.2561
62.19, 1.2610
62.28, 1.2610
62.39, 1.2610
62.49, 1.2610
62.59, 1.2561
62.70, 1.2659
62.79, 1.2610
62.90, 1.2659
63.00, 1.2610
63.10, 1.2610
63.20, 1.2561
63.30, 1.2561
63.41, 1.2561
63.51, 1.2561
63.61, 1.2561
63.70, 1.2512
63.81, 1.2561
63.91, 1.2561
64.01, 1.2561
64.11, 1.2708
64.21, 1.2659
64.31, 1.2610
64.41, 1.2610
64.52, 1.2561
64.62, 1.2512
64.72, 1.2512
64.82, 1.2512
64.92, 1.2463
65.02, 1.2463
65.12, 1.2463
65.23, 1.2463
65.33, 1.2512
65.42, 1.2512
65.53, 1.2512
65.63, 1.2512
65.73, 1.2561
65.83, 1.2561
65.94, 1.2561
66.04, 1.2512
66.14, 1.2463
66.24, 1.2512
66.34, 1.2463
66.44, 1.2414
66.54, 1.2414
66.64, 1.2414
66.75, 1.2414
66.85, 1.2463
66.95, 1.2463
67.05, 1.2463
67.15, 1.2512
67.25, 1.2512
67.35, 1.2561
67.46, 1.2512
67.55, 1.2708
67.66, 1.2610
67.76, 1.2463
67.86, 1.2414
67.96, 1.2366
68.06, 1.2317
68.16, 1.2366
68.26, 1.2414
68.37, 1.2414
68.47, 1.2463
68.57, 1.2463
68.67, 1.2463
68.77, 1.2512
68.87, 1.2512
68.98, 1.2512
69.08, 1.2463
69.18, 1.2414
69.28, 1.2366
69.38, 1.2366
69.48, 1.2366
69.58, 1.2268
69.68, 1.2366
69.79, 1.2366
69.88, 1.2366
69.99, 1.2414
70.09, 1.2414
70.19, 1.2414
70.30, 1.2512
70.40, 1.2463
70.50, 1.2463
70.60, 1.2463
70.70, 1.2414
70.80, 1.2366
70.90, 1.2366
71.00, 1.2366
71.10, 1.2512
71.21, 1.2366
71.31, 1.2366
71.41, 1.2366
71.51, 1.2366
71.62, 1.2317
71.72, 1.2414
71.82, 1.2414
71.91, 1.2414
72.01, 1.2414
72.12, 1.2366
72.22, 1.2366
72.32, 1.2317
72.42, 1.2317
72.53, 1.2317
72.63, 1.2317
72.73, 1.2317
72.82, 1.2317
72.93, 1.2317
73.03, 1.2317
73.13, 1.2317
73.24, 1.2414
73.33, 1.2366
73.44, 1.2414
73.53, 1.2366
73.64, 1.2366
73.74, 1.2366
73.84, 1.2317
73.94, 1.2268
74.05, 1.2317
74.14, 1.2268
74.24, 1.2268
74.35, 1.2268
74.45, 1.2268
74.55, 1.2268
74.65, 1.2414
74.76, 1.2366
74.85, 1.2317
74.95, 1.2317
75.06, 1.2317
75.16, 1.2219
75.26, 1.2219
75.36, 1.2170
75.47, 1.2170
75.56, 1.2170
75.67, 1.2170
75.76, 1.2170
75.87, 1.2170
75.97, 1.2219
76.07, 1.2170
76.17, 1.2170
76.27, 1.2219
76.37, 1.2219
76.47, 1.2219
76.58, 1.2072
76.68, 1.2121
76.78, 1.2121
76.88, 1.2072
76.98, 1.2072
77.09, 1.2072
77.19, 1.2072
77.29, 1.2072
77.39, 1.2072
77.49, 1.2072
77.59, 1.2072
77.69, 1.2121
77.79, 1.2121
77.89, 1.2170
78.00, 1.2121
78.10, 1.2268
78.20, 1.2219
78.30, 1.2121
78.40, 1.2023
78.50, 1.2023
78.61, 1.1926
78.71, 1.1975
78.80, 1.2023
78.91, 1.2023
79.01, 1.2072
79.11, 1.2072
79.21, 1.2121
79.32, 1.2072
79.41, 1.2072
79.52, 1.2170
79.62, 1.2072
79.72, 1.2072
79.82, 1.2023
79.92, 1.2023
80.02, 1.2023
80.13, 1.1926
80.23, 1.2023
80.33, 1.2121
80.45, 1.2072
80.53, 1.2170
80.63, 1.2219
80.73, 1.2268
80.84, 1.2366
80.94, 1.2414
81.03, 1.2414
81.14, 1.2463
81.24, 1.2463
81.34, 1.2463
81.44, 1.2463
81.54, 1.2463
81.65, 1.2610
81.75, 1.2512
81.85, 1.2512
81.95, 1.2463
82.05, 1.2463
82.16, 1.2414
82.25, 1.2512
82.35, 1.2561
82.46, 1.2561
82.56, 1.2610
82.66, 1.2561
82.76, 1.2561
82.86, 1.2512
82.97, 1.2512
83.06, 1.2512
83.16, 1.2512
83.27, 1.2512
83.37, 1.2512
83.47, 1.2610
83.57, 1.2610
83.67, 1.2561
83.77, 1.2610
83.88, 1.2659
83.97, 1.2708
84.08, 1.2659
84.18, 1.2610
84.28, 1.2610
84.38, 1.2561
84.48, 1.2512
84.59, 1.2512
84.68, 1.2463
84.79, 1.2414
84.89, 1.2463
84.99, 1.2414
85.09, 1.2610
85.20, 1.2512
85.29, 1.2463
85.39, 1.2561
85.50, 1.2952
85.60, 1.3392
85.70, 1.3881
85.80, 1.4223
85.90, 1.4418
86.01, 1.4565
86.10, 1.4614
86.20, 1.4663
86.31, 1.4663
86.41, 1.4663
86.51, 1.4663
86.61, 1.4761
86.71, 1.4761
86.81, 1.4761
86.92, 1.4761
87.01, 1.4809
87.11, 1.4663
87.22, 1.4712
87.32, 1.4712
87.42, 1.4712
87.52, 1.4663
87.63, 1.4712
87.73, 1.4663
87.83, 1.4712
87.93, 1.4712
88.03, 1.4761
88.13, 1.4761
88.23, 1.4761
88.33, 1.4809
88.44, 1.4809
88.53, 1.4858
88.63, 1.4956
88.74, 1.4858
88.84, 1.4761
88.94, 1.4809
89.04, 1.4712
89.15, 1.4663
89.24, 1.4663
89.34, 1.4712
89.45, 1.4712
89.55, 1.4761
89.65, 1.4761
89.75, 1.4809
89.86, 1.4858
89.95, 1.4858
90.06, 1.4809
90.16, 1.4809
90.26, 1.4761
90.36, 1.4761
90.50, 1.4761
90.56, 1.4712
90.67, 1.4663
90.76, 1.4712
90.87, 1.4712
90.97, 1.4761
91.07, 1.4761
91.17, 1.4809
91.28, 1.4809
91.38, 1.4809
91.47, 1.4858
91.57, 1.4858
91.68, 1.4809
91.78, 1.4809
91.88, 1.4761
91.98, 1.4761
92.09, 1.4761
92.19, 1.4809
92.28, 1.4761
92.39, 1.4761
92.49, 1.4761
92.59, 1.4761
92.71, 1.4761
92.79, 1.4809
92.89, 1.4809
93.00, 1.4858
93.09, 1.4809
93.20, 1.4809
93.30, 1.4809
93.40, 1.4761
93.51, 1.4761
93.61, 1.4761
93.71, 1.4761
93.81, 1.4761
93.91, 1.4761
94.01, 1.4761
94.11, 1.4712
94.21, 1.4761
94.31, 1.4809
94.41, 1.4858
94.52, 1.4907
94.61, 1.4858
94.72, 1.4858
94.82, 1.4809
94.92, 1.4761
95.02, 1.4761
95.12, 1.4761
95.22, 1.4809
95.33, 1.4761
95.43, 1.4761
95.53, 1.4809
95.63, 1.5005
95.73, 1.4907
95.83, 1.4907
95.93, 1.4907
96.04, 1.4858
96.14, 1.4809
96.24, 1.4809
96.34, 1.4809
96.44, 1.4809
96.54, 1.4809
96.64, 1.4809
96.75, 1.4809
96.85, 1.4809
96.95, 1.4809
97.05, 1.4809
97.15, 1.4907
97.25, 1.4858
97.35, 1.4907
97.45, 1.4907
97.55, 1.4907
97.66, 1.4858
97.76, 1.4858
97.86, 1.4809
97.96, 1.4809
98.06, 1.4809
98.16, 1.4809
98.27, 1.4809
98.37, 1.4809
98.47, 1.4809
98.57, 1.4858
98.68, 1.4858
98.77, 1.4858
98.88, 1.4907
98.97, 1.4907
99.07, 1.4907
99.18, 1.5054
99.28, 1.4956
99.38, 1.4907
99.49, 1.4858
99.58, 1.4858
99.68, 1.4761
99.79, 1.4809
99.89, 1.4809
99.99, 1.4858
100.09, 1.4858
100.19, 1.4858
100.29, 1.4907
100.40, 1.4907
100.50, 1.4956
100.60, 1.4956
100.70, 1.4956
100.80, 1.4956
100.90, 1.4907
101.00, 1.4907
101.10, 1.4761
101.21, 1.4809
101.31, 1.4809
101.41, 1.4858
101.51, 1.4858
101.61, 1.4907
101.71, 1.4858
101.81, 1.4907
101.91, 1.4956
102.02, 1.4956
102.12, 1.5005
102.22, 1.4956
102.32, 1.4956
102.42, 1.4956
102.52, 1.4907
102.63, 1.5054
102.73, 1.4956
102.83, 1.4858
102.93, 1.4907
103.03, 1.4858
103.13, 1.4809
103.23, 1.4858
103.33, 1.4907
103.43, 1.4956
103.54, 1.4956
103.63, 1.4956
103.74, 1.4956
103.84, 1.4956
103.94, 1.4956
104.04, 1.4907
104.14, 1.4907
104.24, 1.4858
104.35, 1.4907
104.45, 1.4907
104.55, 1.4907
104.65, 1.4858
104.75, 1.4907
104.86, 1.4907
104.95, 1.4956
105.05, 1.5005
105.16, 1.4956
105.26, 1.5005
105.36, 1.5005
105.46, 1.4956
105.57, 1.4956
105.66, 1.4956
105.76, 1.4907
105.87, 1.4907
105.97, 1.4907
106.07, 1.4907
106.17, 1.5054
106.27, 1.5005
106.37, 1.5005
106.47, 1.5005
106.58, 1.5005
106.68, 1.4956
106.78, 1.5005
106.88, 1.5054
106.98, 1.5005
107.08, 1.5005
107.18, 1.4956
107.29, 1.4907
107.39, 1.4956
107.49, 1.4907
107.61, 1.4956
107.70, 1.4956
107.79, 1.4956
107.90, 1.4956
108.00, 1.4956
108.10, 1.5005
108.20, 1.4956
108.30, 1.5005
108.41, 1.5005
108.51, 1.5005
108.61, 1.5005
108.71, 1.4956
108.80, 1.4956
108.91, 1.4956
109.01, 1.4956
109.11, 1.5005
109.21, 1.4956
109.31, 1.4956
109.42, 1.5005
109.51, 1.5005
109.62, 1.5249
109.72, 1.5152
109.82, 1.5103
109.92, 1.5054
110.02, 1.5103
110.13, 1.4956
110.23, 1.4956
110.32, 1.5005
110.43, 1.5005
110.53, 1.5005
110.63, 1.5005
110.73, 1.5005
110.83, 1.5005
110.93, 1.5005
111.04, 1.5054
111.14, 1.5054
111.24, 1.5054
111.34, 1.5103
111.44, 1.5103
111.54, 1.5103
111.64, 1.4956
111.74, 1.5054
111.85, 1.5054
111.95, 1.5005
112.05, 1.5005
112.15, 1.5005
112.25, 1.5054
112.35, 1.5005
112.46, 1.5054
112.55, 1.5103
112.66, 1.5054
112.76, 1.5103
112.86, 1.5152
112.96, 1.5152
113.06, 1.5200
113.16, 1.5298
113.26, 1.5200
113.36, 1.5103
113.47, 1.5103
113.57, 1.5054
113.67, 1.5005
113.77, 1.5005
113.88, 1.5054
113.97, 1.5103
114.07, 1.5103
114.17, 1.5103
114.28, 1.5103
114.38, 1.5152
114.48, 1.5200
114.58, 1.5152
114.68, 1.5200
114.79, 1.5152
114.88, 1.5103
114.99, 1.5103
115.09, 1.5103
115.19, 1.5054
115.29, 1.5054
115.39, 1.5054
115.50, 1.5103
115.60, 1.5103
115.70, 1.5103
115.80, 1.5200
115.90, 1.5200
116.00, 1.5200
116.10, 1.5249
116.20, 1.5200
116.30, 1.5200
116.40, 1.5152
116.51, 1.5152
116.61, 1.5103
116.71, 1.5249
116.81, 1.5152
116.91, 1.5152
117.02, 1.5103
117.12, 1.5152
117.22, 1.5103
117.32, 1.5152
117.42, 1.5200
117.52, 1.5200
117.62, 1.5200
117.72, 1.5249
117.83, 1.5200
117.93, 1.5152
118.03, 1.5152
118.13, 1.5152
118.23, 1.5152
118.33, 1.5103
118.43, 1.5152
118.53, 1.5103
118.63, 1.5005
118.73, 1.5152
118.84, 1.5152
118.94, 1.5200
119.05, 1.5200
119.14, 1.5249
119.25, 1.5249
119.35, 1.5200
119.45, 1.5200
119.55, 1.5200
119.65, 1.5152
119.75, 1.5152
119.86, 1.5200
119.96, 1.5152
120.05, 1.5152
120.16, 1.5347
120.26, 1.5249
120.36, 1.5249
120.46, 1.5249
120.56, 1.5249
120.66, 1.5152
120.76, 1.5249
120.86, 1.5249
120.97, 1.5249
121.07, 1.5200
121.17, 1.5200
121.27, 1.5152
121.37, 1.5152
121.48, 1.5200
121.58, 1.5152
121.67, 1.5200
121.77, 1.5200
121.88, 1.5249
121.98, 1.5249
122.09, 1.5249
122.18, 1.5200
122.29, 1.5249
122.39, 1.5249
122.49, 1.5249
122.59, 1.5249
122.69, 1.5200
122.80, 1.5200
122.89, 1.5200
123.00, 1.5200
123.10, 1.5249
123.20, 1.5249
123.30, 1.5347
123.40, 1.5347
123.50, 1.5445
123.60, 1.5396
123.70, 1.5543
123.81, 1.5445
123.91, 1.5396
124.01, 1.5347
124.11, 1.5249
124.21, 1.5152
124.31, 1.5103
124.42, 1.5103
124.51, 1.5103
124.62, 1.5200
124.72, 1.5445
124.82, 1.5787
124.92, 1.6276
125.03, 1.6667
125.12, 1.7058
125.22, 1.7400
125.32, 1.7595
125.42, 1.7742
125.53, 1.7742
125.63, 1.7791
125.73, 1.7693
125.83, 1.7693
125.96, 1.7742
126.03, 1.7742
126.14, 1.7742
126.24, 1.7791
126.34, 1.7791
126.44, 1.7791
126.55, 1.7791
126.64, 1.7840
126.74, 1.7937
126.85, 1.7889
126.95, 1.7889
127.05, 1.7840
127.15, 1.8035
127.25, 1.7889
127.35, 1.7791
127.46, 1.7791
127.55, 1.7791
127.66, 1.7644
127.76, 1.7742
127.86, 1.7742
127.96, 1.7791
128.06, 1.7791
128.16, 1.7840
128.26, 1.7889
128.36, 1.7889
128.46, 1.7889
128.57, 1.7840
128.67, 1.7840
128.77, 1.7840
128.87, 1.7791
128.98, 1.7791
129.08, 1.7791
129.18, 1.7742
129.28, 1.7791
129.38, 1.7791
129.48, 1.7840
129.58, 1.7889
129.68, 1.7889
129.78, 1.7889
129.89, 1.7937
129.99, 1.7937
130.09, 1.7889
130.19, 1.7889
130.29, 1.7840
130.39, 1.7840
130.49, 1.7840
130.60, 1.7791
130.70, 1.7986
130.80, 1.7889
130.90, 1.7840
131.00, 1.7840
131.10, 1.7840
131.20, 1.7791
131.31, 1.7840
131.41, 1.7889
131.51, 1.7889
131.61, 1.7889
131.71, 1.7840
131.81, 1.7840
131.91, 1.7840
132.02, 1.7791
132.11, 1.7791
132.22, 1.7791
132.32, 1.7791
132.43, 1.7840
132.52, 1.7791
132.62, 1.7840
132.72, 1.7791
132.82, 1.7840
132.93, 1.7889
133.03, 1.7889
133.13, 1.7889
133.23, 1.7840
133.33, 1.7840
133.44, 1.7840
133.54, 1.7791
133.64, 1.7791
133.74, 1.7791
133.84, 1.7791
133.94, 1.7840
134.04, 1.7840
134.14, 1.7840
134.24, 1.7986
134.34, 1.7986
134.45, 1.7889
134.55, 1.7937
134.65, 1.7889
134.75, 1.7840
134.85, 1.7791
134.96, 1.7840
135.06, 1.7791
135.16, 1.7791
135.26, 1.7840
135.36, 1.7791
135.46, 1.7889
135.56, 1.7840
135.67, 1.7889
135.76, 1.7889
135.87, 1.7937
135.97, 1.7937
136.07, 1.7889
136.17, 1.7791
136.27, 1.7840
136.37, 1.7840
136.48, 1.7840
136.57, 1.7840
136.67, 1.7791
136.78, 1.7840
136.88, 1.7840
136.98, 1.7840
137.08, 1.7937
137.18, 1.7889
137.28, 1.7889
137.39, 1.7986
137.49, 1.7937
137.59, 1.7937
137.69, 1.8133
137.79, 1.7986
137.90, 1.7889
138.00, 1.7840
138.09, 1.7889
138.20, 1.7791
138.30, 1.7889
138.41, 1.7840
138.50, 1.7889
138.60, 1.7889
138.70, 1.7889
138.80, 1.7937
138.90, 1.7937
139.00, 1.7937
139.11, 1.7986
139.21, 1.7986
139.31, 1.7937
139.41, 1.7889
139.51, 1.7889
139.62, 1.7889
139.71, 1.7791
139.82, 1.7889
139.92, 1.7840
140.02, 1.7937
140.12, 1.7937
140.22, 1.7889
140.32, 1.7937
140.43, 1.7986
140.53, 1.7986
140.63, 1.7986
140.73, 1.7986
140.83, 1.7937
140.93, 1.7937
141.03, 1.7889
141.14, 1.7889
141.24, 1.8035
141.34, 1.7937
141.44, 1.7889
141.54, 1.7937
141.64, 1.7889
141.74, 1.7889
141.85, 1.7986
141.94, 1.7986
142.05, 1.7986
142.15, 1.7986
142.25, 1.7937
142.35, 1.7986
142.45, 1.7937
142.55, 1.7937
142.65, 1.7889
142.75, 1.7889
142.86, 1.7889
142.96, 1.7937
143.06, 1.7937
143.16, 1.7937
143.26, 1.7889
143.36, 1.7937
143.47, 1.7986
143.57, 1.7986
143.67, 1.7986
143.77, 1.7986
143.87, 1.7937
143.98, 1.7937
144.07, 1.7937
144.18, 1.7937
144.28, 1.7937
144.38, 1.7937
144.48, 1.7937
144.58, 1.7986
144.68, 1.8182
144.80, 1.8084
144.89, 1.8035
144.98, 1.8035
145.09, 1.8035
145.19, 1.7937
145.29, 1.7986
145.39, 1.7986
145.49, 1.7986
145.59, 1.7937
145.69, 1.7986
145.80, 1.7937
145.90, 1.7937
146.00, 1.7986
146.11, 1.7986
146.20, 1.8035
146.30, 1.7986
146.41, 1.8035
146.51, 1.8084
146.61, 1.8035
146.71, 1.7986
146.81, 1.8035
146.91, 1.8035
147.02, 1.7986
147.11, 1.8035
147.21, 1.7986
147.32, 1.7986
147.42, 1.7986
147.52, 1.7986
147.63, 1.8035
147.72, 1.8035
147.83, 1.8035
147.92, 1.8084
148.03, 1.8084
148.13, 1.8133
148.23, 1.8231
148.33, 1.8182
148.43, 1.8084
148.53, 1.8035
148.64, 1.8035
148.74, 1.7937
148.84, 1.7986
148.94, 1.7986
149.04, 1.8035
149.14, 1.8035
149.24, 1.8035
149.34, 1.8084
149.45, 1.8084
149.54, 1.8084
149.65, 1.8133
149.75, 1.8133
149.85, 1.8133
149.95, 1.8084
150.05, 1.8084
150.16, 1.8035
150.25, 1.7986
150.36, 1.8035
150.46, 1.7986
150.56, 1.8035
150.66, 1.8035
150.76, 1.8084
150.87, 1.8084
150.97, 1.8084
151.06, 1.8133
151.17, 1.8231
151.27, 1.8133
151.37, 1.8133
151.47, 1.8133
151.57, 1.8084
151.67, 1.8328
151.78, 1.8182
151.88, 1.8035
151.98, 1.8035
152.08, 1.8035
152.18, 1.7937
152.28, 1.8035
152.38, 1.8084
152.49, 1.8084
152.59, 1.8182
152.69, 1.8133
152.79, 1.8182
152.89, 1.8133
152.99, 1.8133
153.09, 1.8133
153.20, 1.8084
153.30, 1.8084
153.40, 1.8084
153.50, 1.8084
153.60, 1.8084
153.70, 1.7986
153.80, 1.8084
153.91, 1.8133
154.01, 1.8133
154.11, 1.8182
154.21, 1.8182
154.31, 1.8182
154.41, 1.8182
154.51, 1.8133
154.61, 1.8133
154.72, 1.8133
154.81, 1.8084
154.92, 1.8133
155.02, 1.8084
155.12, 1.8084
155.22, 1.8328
155.32, 1.8182
155.43, 1.8231
155.52, 1.8182
155.63, 1.8182
155.73, 1.8133
155.83, 1.8182
155.93, 1.8182
156.03, 1.8231
156.14, 1.8133
156.23, 1.8133
156.34, 1.8084
156.44, 1.8084
156.54, 1.8084
156.64, 1.8133
156.74, 1.8133
156.85, 1.8182
156.95, 1.8182
157.05, 1.8182
157.15, 1.8182
157.25, 1.8182
157.35, 1.8231
157.45, 1.8231
157.55, 1.8231
157.66, 1.8182
157.76, 1.8182
157.85, 1.8133
157.96, 1.8133
158.06, 1.8182
158.16, 1.8133
158.26, 1.8182
158.37, 1.8182
158.47, 1.8182
158.57, 1.8182
158.67, 1.8280
158.77, 1.8426
158.87, 1.8280
158.97, 1.8328
159.07, 1.8328
159.18, 1.8280
159.28, 1.8280
159.38, 1.8231
159.48, 1.8280
159.58, 1.8280
159.68, 1.8280
159.78, 1.8328
159.89, 1.8280
159.98, 1.8328
160.09, 1.8328
160.19, 1.8377
160.29, 1.8328
160.39, 1.8328
160.49, 1.8328
160.60, 1.8231
160.70, 1.8084
160.80, 1.8133
160.90, 1.8133
161.00, 1.8231
161.10, 1.8524
161.20, 1.9159
161.30, 2.0137
161.40, 2.0674
161.51, 2.0968
161.61, 2.1163
161.71, 2.1310
161.81, 2.1359
161.91, 2.1359
162.01, 2.1408
162.11, 2.1359
162.22, 2.1554
162.32, 2.1408
162.42, 2.1359
162.52, 2.1310
162.62, 2.1310
162.73, 2.1212
162.83, 2.1261
162.93, 2.1310
163.03, 2.1310
163.13, 2.1359
163.23, 2.1359
163.34, 2.1408
163.43, 2.1359
163.53, 2.1359
163.63, 2.1310
163.74, 2.1359
163.83, 2.1261
163.94, 2.1261
164.04, 2.1261
164.14, 2.1261
164.24, 2.1212
164.34, 2.1261
164.44, 2.1310
164.55, 2.1310
164.65, 2.1359
164.75, 2.1359
164.85, 2.1359
164.95, 2.1359
165.06, 2.1408
165.16, 2.1310
165.25, 2.1310
165.36, 2.1310
165.46, 2.1310
165.56, 2.1310
165.66, 2.1310
165.76, 2.1457
165.87, 2.1359
165.97, 2.1359
166.06, 2.1310
166.17, 2.1310
166.27, 2.1310
166.37, 2.1359
166.47, 2.1408
166.57, 2.1408
166.67, 2.1359
166.77, 2.1359
166.88, 2.1310
166.98, 2.1310
167.08, 2.1310
167.18, 2.1310
167.28, 2.1359
167.39, 2.1310
167.48, 2.1359
167.60, 2.1359
167.69, 2.1408
167.79, 2.1359
167.89, 2.1408
167.99, 2.1457
168.09, 2.1457
168.19, 2.1408
168.30, 2.1408
168.40, 2.1359
168.50, 2.1359
168.60, 2.1359
168.70, 2.1359
168.80, 2.1359
168.91, 2.1408
169.01, 2.1408
169.10, 2.1408
169.20, 2.1750
169.31, 2.1603
169.41, 2.1505
169.52, 2.1505
169.61, 2.1505
169.72, 2.1310
169.82, 2.1408
169.92, 2.1408
170.02, 2.1408
170.12, 2.1408
170.22, 2.1408
170.32, 2.1408
170.42, 2.1457
170.53, 2.1457
170.63, 2.1505
170.73, 2.1505
170.83, 2.1505
170.93, 2.1554
171.03, 2.1554
171.14, 2.1554
171.23, 2.1408
171.34, 2.1457
171.44, 2.1457
171.54, 2.1457
171.64, 2.1457
171.74, 2.1457
171.84, 2.1457
171.94, 2.1505
172.05, 2.1505
172.14, 2.1505
172.25, 2.1554
172.35, 2.1554
172.45, 2.1603
172.55, 2.1603
172.65, 2.1554
172.76, 2.1750
172.86, 2.1603
172.96, 2.1505
173.06, 2.1505
173.16, 2.1505
173.27, 2.1457
173.36, 2.1505
173.46, 2.1505
173.57, 2.1554
173.67, 2.1554
173.77, 2.1554
173.87, 2.1603
173.97, 2.1652
174.07, 2.1603
174.18, 2.1603
174.27, 2.1603
174.38, 2.1554
174.48, 2.1554
174.58, 2.1554
174.68, 2.1554
174.78, 2.1457
174.88, 2.1505
174.99, 2.1554
175.09, 2.1554
175.18, 2.1554
175.29, 2.1603
175.39, 2.1652
175.49, 2.1652
175.59, 2.1603
175.69, 2.1652
175.80, 2.1603
175.90, 2.1603
176.00, 2.1603
176.10, 2.1554
176.20, 2.1554
176.30, 2.1701
176.41, 2.1652
176.50, 2.1603
176.61, 2.1603
176.71, 2.1554
176.81, 2.1554
176.91, 2.1603
177.01, 2.1652
177.12, 2.1701
177.22, 2.1701
177.32, 2.1652
177.42, 2.1652
177.52, 2.1652
177.62, 2.1603
177.72, 2.1603
177.82, 2.1603
177.92, 2.1603
178.03, 2.1603
178.13, 2.1652
178.22, 2.1505
178.33, 2.1652
178.43, 2.1701
178.53, 2.1701
178.63, 2.1701
178.74, 2.1701
178.84, 2.1750
178.94, 2.1701
179.04, 2.1652
179.14, 2.1652
179.24, 2.1652
179.35, 2.1652
179.44, 2.1652
179.54, 2.1652
179.65, 2.1701
179.75, 2.1896
179.85, 2.1799
179.95, 2.1750
180.05, 2.1799
180.15, 2.1750
180.25, 2.1701
180.36, 2.1701
180.46, 2.1750
180.56, 2.1701
180.66, 2.1701
180.76, 2.1701
180.86, 2.1652
180.96, 2.1701
181.06, 2.1701
181.16, 2.1750
181.27, 2.1701
181.37, 2.1750
181.47, 2.1799
181.57, 2.1799
181.67, 2.1799
181.77, 2.1701
181.87, 2.1799
181.98, 2.1750
182.08, 2.1701
182.18, 2.1652
182.28, 2.1652
182.38, 2.1603
182.49, 2.1652
182.60, 2.1652
182.69, 2.1652
182.79, 2.1652
182.89, 2.1652
182.99, 2.1652
183.09, 2.1701
183.20, 2.1701
183.30, 2.1848
183.40, 2.1701
183.50, 2.1652
183.60, 2.1603
183.70, 2.1603
183.80, 2.1505
183.91, 2.1554
184.01, 2.1554
184.11, 2.1554
184.21, 2.1554
184.31, 2.1554
184.41, 2.1603
184.51, 2.1554
184.62, 2.1603
184.71, 2.1603
184.82, 2.1603
184.92, 2.1603
185.02, 2.1505
185.12, 2.1505
185.22, 2.1505
185.32, 2.1408
185.42, 2.1457
185.52, 2.1457
185.62, 2.1457
185.73, 2.1457
185.83, 2.1408
185.93, 2.1408
186.03, 2.1359
186.13, 2.1310
186.24, 2.1261
186.33, 2.1212
186.44, 2.1114
186.53, 2.1065
186.64, 2.0968
186.74, 2.1163
186.84, 2.0968
186.94, 2.0870
187.04, 2.0821
187.15, 2.0772
187.25, 2.0626
187.35, 2.0674
187.45, 2.0674
187.55, 2.0723
187.65, 2.0674
187.75, 2.0674
187.85, 2.0626
187.95, 2.0626
188.06, 2.0626
188.16, 2.0528
188.26, 2.0528
188.36, 2.0479
188.46, 2.0479
188.56, 2.0430
188.67, 2.0479
188.77, 2.0381
188.87, 2.0430
188.97, 2.0430
189.07, 2.0479
189.17, 2.0430
189.27, 2.0479
189.38, 2.0479
189.48, 2.0430
189.58, 2.0381
189.68, 2.0381
189.78, 2.0332
189.88, 2.0332
189.98, 2.0283
190.09, 2.0283
190.19, 2.0283
190.29, 2.0479
190.39, 2.0381
190.49, 2.0332
190.59, 2.0332
190.70, 2.0332
190.79, 2.0283
190.90, 2.0283
191.00, 2.0283
191.10, 2.0283
191.20, 2.0235
191.30, 2.0235
191.40, 2.0186
191.50, 2.0186
191.61, 2.0186
191.71, 2.0186
191.81, 2.0235
191.91, 2.0186
192.01, 2.0235
192.11, 2.0186
192.21, 2.0186
192.31, 2.0137
192.42, 2.0186
192.52, 2.0186
192.62, 2.0186
192.72, 2.0088
192.82, 2.0088
192.92, 2.0088
193.02, 2.0088
193.12, 2.0088
193.22, 2.0088
193.33, 2.0088
193.43, 2.0137
193.53, 2.0137
193.63, 2.0137
193.73, 2.0137
193.84, 2.0235
193.93, 2.0186
194.04, 2.0137
194.14, 2.0088
194.24, 1.9941
194.34, 1.9990
194.45, 1.9990
194.55, 1.9990
194.65, 1.9990
194.74, 1.9990
194.85, 2.0039
194.95, 1.9990
195.05, 2.0039
195.15, 1.9990
195.26, 2.0039
195.36, 2.0039
195.45, 1.9990
195.56, 1.9990
195.66, 1.9941
195.76, 1.9795
195.86, 1.9844
195.96, 1.9844
196.07, 1.9892
196.17, 1.9844
196.27, 1.9795
196.37, 1.9844
196.47, 1.9844
196.57, 1.9844
196.67, 1.9892
196.77, 1.9892
196.88, 1.9844
196.98, 1.9844
197.08, 1.9844
197.18, 1.9795
197.28, 1.9941
197.38, 1.9844
197.48, 1.9795
197.58, 1.9746
197.68, 1.9746
197.79, 1.9697
197.89, 1.9697
197.99, 1.9746
198.09, 1.9746
198.19, 1.9746
198.30, 1.9746
198.39, 1.9746
198.50, 1.9746
198.60, 1.9697
198.70, 1.9746
198.80, 1.9697
198.90, 1.9648
199.01, 1.9599
199.10, 1.9648
199.21, 1.9599
199.30, 1.9550
199.41, 1.9550
199.51, 1.9599
199.61, 1.9648
199.71, 1.9648
199.81, 1.9648
199.91, 1.9648
200.02, 1.9599
200.12, 1.9599
200.22, 1.9550
200.32, 1.9550
200.42, 1.9501
200.53, 1.9501
200.63, 1.9501
200.72, 1.9501
200.83, 1.9648
200.93, 1.9550
201.03, 1.9501
201.13, 1.9550
201.24, 1.9501
201.33, 1.9501
201.44, 1.9501
201.56, 1.9501
201.63, 1.9501
201.74, 1.9501
201.84, 1.9404
201.94, 1.9404
202.04, 1.9404
202.15, 1.9404
202.25, 1.9404
202.34, 1.9404
202.45, 1.9355
202.55, 1.9404
202.65, 1.9453
202.75, 1.9306
202.85, 1.9404
202.96, 1.9404
203.06, 1.9355
203.16, 1.9404
203.26, 1.9355
203.36, 1.9306
203.46, 1.9306
203.57, 1.9306
203.67, 1.9306
203.77, 1.9355
203.87, 1.9306
203.97, 1.9306
204.07, 1.9355
204.17, 1.9355
204.27, 1.9599
204.37, 1.9404
204.47, 1.9355
204.58, 1.9306
204.68, 1.9257
204.78, 1.9159
204.88, 1.9159
204.98, 1.9159
205.09, 1.9159
205.18, 1.9159
205.29, 1.9159
205.39, 1.9159
205.49, 1.9208
205.59, 1.9159
205.69, 1.9208
205.80, 1.9208
205.89, 1.9208
206.00, 1.9159
206.10, 1.9110
206.20, 1.9062
206.30, 1.9013
206.40, 1.9013
206.50, 1.9013
206.61, 1.9062
206.70, 1.9062
206.81, 1.9062
206.91, 1.9062
207.01, 1.9110
207.11, 1.9159
207.21, 1.9159
207.31, 1.9159
207.41, 1.9159
207.51, 1.9110
207.62, 1.9062
207.72, 1.9062
207.82, 1.9159
207.92, 1.9062
208.03, 1.9013
208.13, 1.9013
208.22, 1.8964
208.32, 1.8964
208.43, 1.9013
208.53, 1.9013
208.63, 1.9062
208.73, 1.9013
208.84, 1.9013
208.94, 1.9013
209.04, 1.9013
209.14, 1.8964
209.24, 1.8915
209.34, 1.8964
209.44, 1.8915
209.55, 1.8964
209.64, 1.8915
209.74, 1.8964
209.85, 1.8817
209.95, 1.8866
210.05, 1.8915
210.15, 1.8915
210.25, 1.8915
210.35, 1.8915
210.46, 1.8866
210.56, 1.8817
210.66, 1.8817
210.76, 1.8719
210.86, 1.8719
210.96, 1.8671
211.06, 1.8671
211.18, 1.8671
211.26, 1.8915
211.37, 1.8768
211.47, 1.8671
211.57, 1.8671
211.67, 1.8671
211.78, 1.8573
211.88, 1.8622
211.98, 1.8622
212.08, 1.8573
212.18, 1.8573
212.28, 1.8524
212.38, 1.8524
212.48, 1.8524
212.58, 1.8475
212.69, 1.8524
212.79, 1.8524
212.89, 1.8524
212.99, 1.8524
213.09, 1.8573
213.19, 1.8573
213.29, 1.8426
213.39, 1.8475
213.50, 1.8475
213.60, 1.8475
213.70, 1.8475
213.80, 1.8377
213.90, 1.8377
214.00, 1.8377
214.11, 1.8377
214.21, 1.8426
214.30, 1.8377
214.41, 1.8377
214.51, 1.8426
214.61, 1.8426
214.71, 1.8426
214.81, 1.8573
214.92, 1.8426
215.02, 1.8377
215.12, 1.8328
215.22, 1.8328
215.32, 1.8182
215.42, 1.8231
215.52, 1.8231
215.63, 1.8328
215.73, 1.8280
215.83, 1.8280
215.93, 1.8328
216.03, 1.8328
216.13, 1.8328
216.23, 1.8280
216.33, 1.8328
216.43, 1.8231
216.53, 1.8231
216.64, 1.8182
216.74, 1.8182
216.84, 1.8084
216.94, 1.8133
217.04, 1.8182
217.15, 1.8182
217.25, 1.8133
217.35, 1.8182
217.45, 1.8182
217.55, 1.8182
217.65, 1.8231
217.75, 1.8182
217.85, 1.8182
217.95, 1.8084
218.06, 1.8084
218.16, 1.8084
218.26, 1.8084
218.36, 1.8182
218.46, 1.8084
218.57, 1.8084
218.66, 1.8084
218.76, 1.8084
218.87, 1.8035
218.97, 1.8084
219.07, 1.8035
219.17, 1.8035
219.27, 1.8035
219.38, 1.7986
219.47, 1.7986
219.57, 1.7937
219.68, 1.7937
219.78, 1.7937
219.88, 1.7889
219.98, 1.7937
220.09, 1.7937
220.19, 1.7937
220.29, 1.7840
220.40, 1.7937
220.49, 1.7986
220.59, 1.7937
220.69, 1.7937
220.79, 1.7937
220.89, 1.7889
220.99, 1.7889
221.10, 1.7840
221.20, 1.7840
221.30, 1.7840
221.40, 1.7791
221.50, 1.7840
221.61, 1.7889
221.70, 1.7840
221.80, 1.8035
221.91, 1.7937
222.01, 1.7889
222.11, 1.7889
222.21, 1.7791
222.32, 1.7742
222.42, 1.7742
222.52, 1.7742
222.62, 1.7693
222.72, 1.7742
222.82, 1.7693
222.92, 1.7742
223.02, 1.7742
223.12, 1.7742
223.22, 1.7791
223.32, 1.7791
223.43, 1.7791
223.53, 1.7742
223.63, 1.7742
223.73, 1.7693
223.84, 1.7595
223.94, 1.7595
224.04, 1.7644
224.14, 1.7644
224.24, 1.7644
224.34, 1.7644
224.44, 1.7644
224.54, 1.7644
224.65, 1.7644
224.74, 1.7693
224.85, 1.7644
224.95, 1.7644
225.05, 1.7644
225.16, 1.7644
225.25, 1.7595
225.35, 1.7693
225.45, 1.7595
225.56, 1.7546
225.66, 1.7498
225.76, 1.7498
225.86, 1.7449
225.96, 1.7498
226.06, 1.7498
226.16, 1.7498
226.27, 1.7546
226.37, 1.7546
226.47, 1.7546
226.57, 1.7498
226.67, 1.7498
226.77, 1.7449
226.87, 1.7400
226.97, 1.7400
227.08, 1.7400
227.18, 1.7400
227.28, 1.7400
227.38, 1.7400
227.48, 1.7449
227.59, 1.7449
227.68, 1.7449
227.78, 1.7449
227.89, 1.7400
227.99, 1.7400
228.09, 1.7351
228.20, 1.7351
228.30, 1.7302
228.40, 1.7302
228.50, 1.7302
228.59, 1.7302
228.70, 1.7302
228.80, 1.7546
228.90, 1.7400
229.00, 1.7302
229.11, 1.7302
229.20, 1.7351
229.31, 1.7253
229.40, 1.7302
229.51, 1.7253
229.61, 1.7253
229.71, 1.7204
229.81, 1.7204
229.91, 1.7204
230.02, 1.7204
230.12, 1.7204
230.22, 1.7204
230.32, 1.7204
230.42, 1.7253
230.53, 1.7253
230.63, 1.7204
230.72, 1.7253
230.82, 1.7155
230.93, 1.7155
231.03, 1.7204
231.13, 1.7155
231.23, 1.7107
231.33, 1.7107
231.43, 1.7107
231.54, 1.7058
231.64, 1.7107
231.74, 1.7107
231.84, 1.7107
231.94, 1.7107
232.05, 1.7107
232.14, 1.7155
232.24, 1.7155
232.35, 1.7302
232.45, 1.7204
232.55, 1.7107
232.65, 1.7058
232.75, 1.7058
232.86, 1.6911
232.95, 1.6960
233.06, 1.6960
233.16, 1.7009
233.26, 1.7009
233.36, 1.7009
233.46, 1.7009
233.56, 1.7058
233.66, 1.7058
233.77, 1.7009
233.87, 1.7009
233.97, 1.6960
234.07, 1.6960
234.17, 1.6911
234.27, 1.6911
234.37, 1.6813
234.47, 1.6862
234.58, 1.6862
234.68, 1.6911
234.78, 1.6960
234.88, 1.6911
234.98, 1.6960
235.08, 1.6960
235.19, 1.6960
235.28, 1.6960
235.39, 1.6911
235.49, 1.6911
235.59, 1.6862
235.69, 1.6862
235.79, 1.6813
235.89, 1.6911
236.00, 1.6862
236.10, 1.6813
236.20, 1.6813
236.30, 1.6716
236.40, 1.6813
236.50, 1.6813
236.60, 1.6862
236.77, 1.6862
236.85, 1.6813
236.91, 1.6813
237.01, 1.6764
237.11, 1.6764
237.21, 1.6764
237.31, 1.6764
237.42, 1.6716
237.52, 1.6716
237.61, 1.6764
237.72, 1.6764
237.82, 1.6667
237.92, 1.6716
238.02, 1.6813
238.12, 1.6813
238.23, 1.6813
238.33, 1.6813
238.43, 1.6764
238.53, 1.6716
238.64, 1.6716
238.74, 1.6716
238.84, 1.6667
238.94, 1.6667
239.04, 1.6667
239.14, 1.6716
239.24, 1.6716
239.34, 1.6911
239.45, 1.6813
239.54, 1.6813
239.65, 1.6764
239.74, 1.6764
239.85, 1.6667
239.95, 1.6667
240.05, 1.6667
240.15, 1.6618
240.26, 1.6618
240.36, 1.6618
240.48, 1.6618
240.55, 1.6667
240.66, 1.6618
240.76, 1.6618
240.86, 1.6667
240.97, 1.6667
241.07, 1.6716
241.17, 1.6667
241.27, 1.6667
241.37, 1.6618
241.47, 1.6569
241.59, 1.6569
241.67, 1.6569
241.77, 1.6569
241.88, 1.6520
242.03, 1.6569
242.13, 1.6569
242.18, 1.6569
242.28, 1.6569
242.38, 1.6618
242.49, 1.6618
242.58, 1.6618
242.69, 1.6618
242.78, 1.6618
242.89, 1.6716
242.99, 1.6618
243.09, 1.6520
243.19, 1.6520
243.29, 1.6471
243.40, 1.6422
243.49, 1.6471
243.60, 1.6520
243.70, 1.6520
243.80, 1.6520
243.90, 1.6520
244.00, 1.6569
244.11, 1.6520
244.20, 1.6569
244.31, 1.6520
244.41, 1.6471
244.51, 1.6471
244.61, 1.6422
244.72, 1.6422
244.82, 1.6325
244.91, 1.6373
245.01, 1.6422
245.12, 1.6422
245.22, 1.6422
245.32, 1.6471
245.42, 1.6471
245.52, 1.6520
245.63, 1.6520
245.72, 1.6471
245.83, 1.6471
245.93, 1.6422
246.03, 1.6422
246.13, 1.6422
246.23, 1.6373
246.33, 1.6569
246.43, 1.6471
246.54, 1.6422
246.64, 1.6373
246.74, 1.6422
246.84, 1.6325
246.95, 1.6373
247.05, 1.6471
247.15, 1.6422
247.25, 1.6471
247.35, 1.6373
247.45, 1.6373
247.55, 1.6373
247.65, 1.6325
247.75, 1.6325
247.85, 1.6325
247.95, 1.6325
248.06, 1.6325
248.16, 1.6325
248.26, 1.6325
248.36, 1.6325
248.46, 1.6325
248.56, 1.6373
248.66, 1.6373
248.77, 1.6373
248.86, 1.6325
248.97, 1.6325
249.08, 1.6276
249.17, 1.6276
249.27, 1.6227
249.37, 1.6276
249.48, 1.6276
249.58, 1.6276
249.68, 1.6276
249.78, 1.6276
249.88, 1.6471
249.98, 1.6373
250.09, 1.6325
250.19, 1.6325
250.29, 1.6276
250.39, 1.6227
250.49, 1.6227
250.59, 1.6227
250.69, 1.6227
250.79, 1.6178
250.89, 1.6178
250.99, 1.6178
251.10, 1.6227
251.20, 1.6227
251.30, 1.6227
251.40, 1.6276
251.50, 1.6276
251.60, 1.6276
251.70, 1.6276
251.81, 1.6227
251.91, 1.6178
252.01, 1.6178
252.11, 1.6178
252.21, 1.6178
252.31, 1.6178
252.41, 1.6178
252.51, 1.6178
252.62, 1.6178
252.72, 1.6178
252.82, 1.6178
252.92, 1.6227
253.02, 1.6227
253.12, 1.6227
253.22, 1.6227
253.32, 1.6471
253.43, 1.6276
253.53, 1.6227
253.63, 1.6129
253.73, 1.6129
253.83, 1.6031
253.94, 1.6080
254.04, 1.6080
254.14, 1.6129
254.24, 1.6129
254.34, 1.6178
254.44, 1.6129
254.54, 1.6178
254.64, 1.6227
254.74, 1.6178
254.85, 1.6178
254.94, 1.6129
255.05, 1.6129
255.15, 1.6080
255.25, 1.6080
255.35, 1.5982
255.45, 1.6031
255.55, 1.6080
255.66, 1.6080
255.76, 1.6080
255.86, 1.6129
255.97, 1.6080
256.06, 1.6178
256.17, 1.6178
256.27, 1.6129
256.37, 1.6129
256.47, 1.6080
256.57, 1.6129
256.67, 1.6031
256.77, 1.6031
256.87, 1.6178
256.97, 1.6080
257.07, 1.6080
257.18, 1.6031
257.29, 1.6031
257.38, 1.5982
257.49, 1.6080
257.59, 1.6080
257.69, 1.6080
257.78, 1.6080
257.89, 1.6080
257.99, 1.6031
258.10, 1.6031
258.20, 1.5982
258.31, 1.5982
258.48, 1.5982
258.66, 1.5934
258.98, 1.5982
259.02, 1.5982
259.05, 1.5982
259.09, 1.5934
259.13, 1.5982
259.17, 1.6031
259.21, 1.6031
259.32, 1.6031
259.42, 1.5982
259.51, 1.5982
259.61, 1.5934
259.71, 1.5934
259.82, 1.5885
259.92, 1.5934
260.02, 1.5934
260.12, 1.5885
260.23, 1.5885
260.32, 1.5885
260.43, 1.6031
260.53, 1.5982
260.63, 1.5934
260.73, 1.5934
260.86, 1.5934
260.93, 1.5885
261.03, 1.5885
261.14, 1.5836
261.24, 1.5836
261.34, 1.5836
261.52, 1.5787
261.55, 1.5836
261.64, 1.5787
261.76, 1.5787
261.89, 1.5836
261.95, 1.5836
262.05, 1.5836
262.19, 1.5836
262.24, 1.5885
262.37, 1.5738
262.46, 1.5836
262.55, 1.5836
262.65, 1.5787
262.75, 1.5787
262.85, 1.5787
262.96, 1.5787
263.06, 1.5738
263.16, 1.5738
263.27, 1.5787
263.36, 1.5787
263.46, 1.5787
263.57, 1.5787
263.66, 1.5836
263.77, 1.5836
263.87, 1.5982
263.98, 1.5934
264.07, 1.5836
264.17, 1.5787
264.27, 1.5738
264.37, 1.5640
264.47, 1.5689
264.58, 1.5689
264.68, 1.5689
264.78, 1.5689
264.88, 1.5738
264.98, 1.5689
265.08, 1.5787
265.18, 1.5738
265.29, 1.5787
265.38, 1.5787
265.49, 1.5738
265.59, 1.5738
265.69, 1.5689
265.79, 1.5689
265.90, 1.5591
266.00, 1.5640
266.10, 1.5640
266.20, 1.5640
266.30, 1.5689
266.40, 1.5640
266.50, 1.5640
266.61, 1.5689
266.70, 1.5689
266.80, 1.5689
266.91, 1.5689
267.01, 1.5689
267.11, 1.5689
267.21, 1.5640
267.32, 1.5591
267.41, 1.5738
267.51, 1.5640
267.62, 1.5640
267.72, 1.5591
267.82, 1.5591
267.92, 1.5543
268.02, 1.5591
268.12, 1.5640
268.23, 1.5640
268.32, 1.5640
268.43, 1.5640
268.53, 1.5640
268.63, 1.5591
268.73, 1.5591
268.83, 1.5543
268.93, 1.5543
269.03, 1.5543
269.14, 1.5543
269.24, 1.5494
269.34, 1.5494
269.44, 1.5494
269.55, 1.5494
269.64, 1.5543
269.75, 1.5543
269.85, 1.5543
269.94, 1.5591
270.05, 1.5543
270.16, 1.5543
270.26, 1.5494
270.35, 1.5445
270.46, 1.5494
270.56, 1.5494
270.65, 1.5445
270.76, 1.5445
270.86, 1.5640
270.96, 1.5591
271.07, 1.5494
271.17, 1.5494
271.26, 1.5494
271.36, 1.5445
271.47, 1.5445
271.57, 1.5445
271.67, 1.5445
271.77, 1.5445
271.88, 1.5396
271.97, 1.5347
272.08, 1.5396
272.18, 1.5396
272.29, 1.5396
272.39, 1.5396
272.49, 1.5396
272.59, 1.5445
272.69, 1.5396
272.78, 1.5445
272.89, 1.5347
272.99, 1.5445
273.09, 1.5396
273.19, 1.5396
273.29, 1.5396
273.39, 1.5347
273.50, 1.5347
273.60, 1.5347
273.70, 1.5347
273.80, 1.5347
273.90, 1.5347
274.00, 1.5347
274.11, 1.5396
274.21, 1.5396
274.30, 1.5396
274.41, 1.5543
274.51, 1.5445
274.61, 1.5396
274.71, 1.5347
274.81, 1.5347
274.91, 1.5249
275.02, 1.5298
275.11, 1.5298
275.22, 1.5298
275.32, 1.5298
275.42, 1.5347
275.52, 1.5347
275.62, 1.5347
275.73, 1.5347
275.82, 1.5396
275.92, 1.5347
276.03, 1.5347
276.13, 1.5298
276.23, 1.5347
276.34, 1.5298
276.43, 1.5200
276.54, 1.5249
276.64, 1.5249
276.74, 1.5249
276.84, 1.5298
276.94, 1.5249
277.04, 1.5298
277.14, 1.5298
277.24, 1.5347
277.35, 1.5347
277.45, 1.5298
277.55, 1.5298
277.65, 1.5249
277.75, 1.5249
277.85, 1.5249
277.97, 1.5298
278.05, 1.5249
278.15, 1.5200
278.26, 1.5249
278.36, 1.5103
278.46, 1.5200
278.56, 1.5200
278.67, 1.5249
278.77, 1.5249
278.87, 1.5298
278.97, 1.5249
279.07, 1.5249
279.17, 1.5200
279.27, 1.5200
279.37, 1.5200
279.47, 1.5152
279.58, 1.5152
279.68, 1.5152
279.78, 1.5152
279.88, 1.5054
279.98, 1.5152
280.08, 1.5152
280.19, 1.5200
280.29, 1.5249
280.38, 1.5200
280.49, 1.5200
280.59, 1.5152
280.69, 1.5152
280.79, 1.5152
280.90, 1.5103
281.00, 1.5103
281.10, 1.5103
281.20, 1.5103
281.30, 1.5103
281.40, 1.5298
281.50, 1.5200
281.60, 1.5200
281.70, 1.5200
281.80, 1.5200
281.90, 1.5103
282.00, 1.5152
282.11, 1.5103
282.21, 1.5103
282.31, 1.5054
282.42, 1.5054
282.52, 1.5054
282.62, 1.5054
282.72, 1.5054
282.82, 1.5054
282.92, 1.5054
283.02, 1.5054
283.13, 1.5103
283.22, 1.5103
283.33, 1.5152
283.43, 1.5054
283.53, 1.5054
283.63, 1.5054
283.73, 1.5005
283.83, 1.4956
283.94, 1.5005
284.03, 1.4956
284.14, 1.4956
284.24, 1.4956
284.34, 1.5005
284.44, 1.4956
284.54, 1.5005
284.64, 1.5005
284.74, 1.5054
284.85, 1.5054
284.94, 1.5152
285.05, 1.5054
285.15, 1.5005
285.25, 1.4956
285.36, 1.4956
285.46, 1.4858
285.56, 1.4907
285.65, 1.4907
285.76, 1.4907
285.86, 1.4907
285.96, 1.4907
286.06, 1.4956
286.16, 1.4956
286.27, 1.4956
286.37, 1.4956
286.47, 1.4956
286.57, 1.4956
286.67, 1.4907
286.77, 1.4858
286.87, 1.4761
286.97, 1.4809
287.08, 1.4858
287.17, 1.4858
287.28, 1.4858
287.38, 1.4858
287.48, 1.4858
287.58, 1.4907
287.68, 1.4907
287.79, 1.4956
287.89, 1.4907
287.99, 1.4907
288.09, 1.4858
288.19, 1.4858
288.29, 1.4858
288.39, 1.5005
288.49, 1.4858
288.59, 1.4858
288.69, 1.4809
288.80, 1.4858
288.90, 1.4761
289.00, 1.4809
289.10, 1.4858
289.21, 1.4858
289.30, 1.4858
289.41, 1.4858
289.51, 1.4858
289.61, 1.4809
289.71, 1.4809
289.81, 1.4761
289.91, 1.4761
290.01, 1.4761
290.11, 1.4761
290.22, 1.4761
290.32, 1.4809
290.42, 1.4712
290.52, 1.4761
290.62, 1.4809
290.72, 1.4809
290.83, 1.4809
290.93, 1.4858
291.03, 1.4809
291.13, 1.4761
291.23, 1.4761
291.33, 1.4712
291.43, 1.4712
291.53, 1.4712
291.63, 1.4712
291.74, 1.4712
291.84, 1.4761
291.94, 1.4907
292.04, 1.4761
292.14, 1.4809
292.25, 1.4761
292.34, 1.4809
292.45, 1.4712
292.55, 1.4712
292.65, 1.4712
292.75, 1.4712
292.85, 1.4663
292.96, 1.4663
293.06, 1.4663
293.15, 1.4663
293.26, 1.4712
293.36, 1.4663
293.46, 1.4712
293.56, 1.4712
293.66, 1.4712
293.77, 1.4712
293.87, 1.4761
293.96, 1.4663
294.07, 1.4663
294.17, 1.4663
294.27, 1.4614
294.37, 1.4614
294.47, 1.4663
294.58, 1.4614
294.68, 1.4663
294.78, 1.4712
294.89, 1.4663
294.98, 1.4712
295.08, 1.4712
295.18, 1.4712
295.29, 1.4663
295.38, 1.4858
295.48, 1.4712
295.59, 1.4663
295.69, 1.4663
295.79, 1.4565
295.89, 1.4516
296.00, 1.4565
296.09, 1.4565
296.20, 1.4614
296.30, 1.4614
296.40, 1.4614
296.50, 1.4663
296.60, 1.4663
296.70, 1.4663
296.81, 1.4712
296.91, 1.4614
297.01, 1.4614
297.11, 1.4565
297.21, 1.4614
297.32, 1.4565
297.42, 1.4516
297.52, 1.4516
297.62, 1.4565
297.72, 1.4614
297.82, 1.4565
297.92, 1.4614
298.02, 1.4614
298.12, 1.4614
298.22, 1.4663
298.33, 1.4614
298.43, 1.4565
298.52, 1.4565
298.63, 1.4516
298.73, 1.4565
298.83, 1.4565
298.94, 1.4663
299.04, 1.4565
299.14, 1.4565
299.24, 1.4614
299.34, 1.4565
299.44, 1.4516
299.54, 1.4565
299.64, 1.4565
299.74, 1.4565
299.85, 1.4565
299.94, 1.4516
300.05, 1.4516
300.15, 1.4467
300.26, 1.4467
300.36, 1.4467
300.46, 1.4467
300.56, 1.4467
300.66, 1.4516
300.75, 1.4516
300.86, 1.4565
300.96, 1.4516
301.06, 1.4516
301.16, 1.4516
301.27, 1.4516
301.37, 1.4516
301.47, 1.4467
301.57, 1.4418
301.67, 1.4418
301.77, 1.4418
301.87, 1.4418
301.97, 1.4467
302.07, 1.4467
302.17, 1.4467
302.29, 1.4516
302.38, 1.4516
302.48, 1.4614
302.58, 1.4565
302.69, 1.4516
302.79, 1.4516
302.89, 1.4418
302.99, 1.4418
303.09, 1.4370
303.19, 1.4418
303.29, 1.4418
303.39, 1.4418
303.50, 1.4467
303.59, 1.4418
303.69, 1.4467
303.80, 1.4467
303.90, 1.4516
304.00, 1.4467
304.10, 1.4467
304.20, 1.4467
304.30, 1.4467
304.40, 1.4321
304.51, 1.4370
304.61, 1.4370
304.71, 1.4370
304.81, 1.4418
304.92, 1.4370
305.02, 1.4418
305.12, 1.4418
305.22, 1.4418
305.32, 1.4467
305.42, 1.4467
305.52, 1.4467
305.62, 1.4418
305.73, 1.4418
305.83, 1.4370
305.93, 1.4565
306.03, 1.4418
306.14, 1.4418
306.23, 1.4370
306.33, 1.4418
306.43, 1.4272
306.54, 1.4370
306.64, 1.4370
306.74, 1.4418
306.84, 1.4418
306.94, 1.4418
307.04, 1.4418
307.14, 1.4370
307.24, 1.4321
307.34, 1.4321
307.45, 1.4370
307.55, 1.4321
307.65, 1.4321
307.75, 1.4321
307.85, 1.4321
307.95, 1.4272
308.05, 1.4370
308.15, 1.4370
308.26, 1.4418
308.36, 1.4370
308.46, 1.4370
308.56, 1.4370
308.66, 1.4321
308.76, 1.4321
308.86, 1.4272
308.97, 1.4272
309.07, 1.4321
309.17, 1.4321
309.27, 1.4321
309.37, 1.4321
309.47, 1.4467
309.57, 1.4418
309.68, 1.4418
309.78, 1.4370
309.88, 1.4418
309.98, 1.4321
310.09, 1.4272
310.18, 1.4272
310.28, 1.4272
310.38, 1.4272
310.49, 1.4272
310.59, 1.4272
310.69, 1.4272
310.79, 1.4272
310.89, 1.4321
310.99, 1.4321
311.09, 1.4321
311.20, 1.4370
311.30, 1.4321
311.40, 1.4321
311.50, 1.4223
311.60, 1.4272
311.71, 1.4223
311.81, 1.4223
311.91, 1.4223
312.01, 1.4223
312.11, 1.4223
312.21, 1.4272
312.31, 1.4272
312.41, 1.4272
312.52, 1.4272
312.61, 1.4321
312.72, 1.4272
312.82, 1.4272
312.92, 1.4467
313.02, 1.4321
313.12, 1.4272
313.23, 1.4223
313.32, 1.4223
313.42, 1.4125
313.53, 1.4174
313.63, 1.4174
313.74, 1.4223
313.83, 1.4223
313.93, 1.4321
314.04, 1.4272
314.14, 1.4272
314.24, 1.4223
314.34, 1.4223
314.44, 1.4223
314.54, 1.4174
314.65, 1.4174
314.75, 1.4125
314.85, 1.4174
314.95, 1.4076
315.05, 1.4174
315.15, 1.4174
315.25, 1.4223
315.35, 1.4223
315.45, 1.4223
315.55, 1.4272
315.66, 1.4223
315.76, 1.4223
315.86, 1.4223
315.96, 1.4174
316.06, 1.4125
316.16, 1.4125
316.27, 1.4125
316.37, 1.4174
316.47, 1.4272
316.57, 1.4272
316.67, 1.4223
316.77, 1.4223
316.87, 1.4223
316.97, 1.4174
317.08, 1.4174
317.18, 1.4174
317.28, 1.4125
317.38, 1.4174
317.48, 1.4125
317.58, 1.4125
317.68, 1.4125
317.78, 1.4125
317.89, 1.4125
317.99, 1.4125
318.09, 1.4174
318.19, 1.4223
318.29, 1.4174
318.39, 1.4174
318.50, 1.4125
318.59, 1.4125
318.70, 1.4125
318.80, 1.4125
318.90, 1.4125
319.00, 1.4076
319.10, 1.4125
319.20, 1.4125
319.30, 1.4076
319.40, 1.4174
319.51, 1.4125
319.61, 1.4174
319.71, 1.4174
319.81, 1.4223
319.91, 1.4418
320.01, 1.4223
320.11, 1.4174
320.22, 1.4125
320.32, 1.4076
320.42, 1.3978
320.52, 1.4076
320.62, 1.4076
320.72, 1.4076
320.83, 1.4076
320.92, 1.4125
321.03, 1.4125
321.13, 1.4174
321.23, 1.4174
321.33, 1.4174
321.43, 1.4174
321.53, 1.4076
321.63, 1.4076
321.73, 1.4076
321.84, 1.4076
321.94, 1.3978
322.04, 1.3978
322.15, 1.4076
322.25, 1.4076
322.34, 1.4076
322.45, 1.4125
322.55, 1.4125
322.65, 1.4125
322.75, 1.4125
322.85, 1.4125
322.95, 1.4125
323.05, 1.4076
323.16, 1.4076
323.26, 1.4027
323.36, 1.4027
323.46, 1.4223
323.56, 1.4125
323.66, 1.4076
323.76, 1.4076
323.86, 1.4076
323.97, 1.4076
324.07, 1.4076
324.17, 1.4125
324.27, 1.4125
324.37, 1.4076
324.47, 1.4076
324.57, 1.4027
324.68, 1.4027
324.78, 1.3978
324.88, 1.4027
324.98, 1.4027
325.08, 1.4027
325.18, 1.4076
325.29, 1.4076
325.39, 1.4125
325.49, 1.4027
325.59, 1.4076
325.69, 1.4125
325.79, 1.4076
325.89, 1.4076
325.99, 1.4027
326.09, 1.4027
326.19, 1.3978
326.29, 1.3978
326.40, 1.3978
326.50, 1.4027
326.60, 1.4027
326.70, 1.4027
326.80, 1.4027
326.90, 1.4076
327.01, 1.4174
327.11, 1.4174
327.21, 1.4125
327.31, 1.4027
327.41, 1.4027
327.52, 1.3930
327.61, 1.3978
327.72, 1.3978
327.82, 1.3978
327.92, 1.3978
328.02, 1.3978
328.12, 1.4027
328.23, 1.4027
328.32, 1.4076
328.42, 1.4076
328.53, 1.4076
328.63, 1.4076
328.73, 1.4076
328.84, 1.3978
328.93, 1.3881
329.03, 1.3930
329.14, 1.3930
329.24, 1.3978
329.34, 1.3978
329.44, 1.4027
329.54, 1.4027
329.64, 1.3978
329.74, 1.4027
329.85, 1.4076
329.95, 1.4027
330.05, 1.4076
330.15, 1.4027
330.25, 1.3978
330.36, 1.3978
330.45, 1.4125
330.55, 1.4027
330.66, 1.3978
330.75, 1.3978
330.86, 1.3930
330.96, 1.3881
331.06, 1.3978
331.17, 1.3978
331.26, 1.4027
331.36, 1.4027
331.46, 1.4027
331.57, 1.3978
331.67, 1.3978
331.77, 1.3978
331.87, 1.3930
331.97, 1.3930
332.07, 1.3930
332.17, 1.3930
332.28, 1.3930
332.38, 1.3930
332.48, 1.3881
332.58, 1.3930
332.68, 1.3978
332.79, 1.3978
332.89, 1.3978
332.98, 1.3978
333.09, 1.3930
333.19, 1.3978
333.29, 1.3881
333.39, 1.3881
333.49, 1.3881
333.60, 1.3881
333.69, 1.3881
333.79, 1.3881
333.90, 1.3881
334.00, 1.4027
334.10, 1.4027
334.20, 1.3978
334.31, 1.3978
334.41, 1.3978
334.51, 1.3881
334.61, 1.3881
334.71, 1.3881
334.81, 1.3881
334.91, 1.3881
335.01, 1.3881
335.12, 1.3881
335.22, 1.3881
335.32, 1.3881
335.42, 1.3881
335.52, 1.3978
335.62, 1.3930
335.72, 1.3930
335.83, 1.3930
335.93, 1.3930
336.03, 1.3832
336.13, 1.3881
336.23, 1.3832
336.33, 1.3832
336.43, 1.3832
336.54, 1.3832
336.63, 1.3832
336.74, 1.3881
336.84, 1.3881
336.94, 1.3881
337.04, 1.3930
337.14, 1.3930
337.24, 1.3930
337.34, 1.3881
337.45, 1.4076
337.55, 1.3978
337.65, 1.3832
337.75, 1.3832
337.85, 1.3832
337.95, 1.3734
338.06, 1.3783
338.15, 1.3783
338.25, 1.3783
338.36, 1.3832
338.46, 1.3881
338.56, 1.3881
338.66, 1.3881
338.76, 1.3881
338.86, 1.3881
338.96, 1.3832
339.07, 1.3832
339.17, 1.3783
339.27, 1.3783
339.37, 1.3783
339.47, 1.3734
339.58, 1.3783
339.68, 1.3783
339.78, 1.3832
339.88, 1.3881
339.98, 1.3881
340.08, 1.3881
340.18, 1.3881
340.28, 1.3881
340.39, 1.3881
340.49, 1.3783
340.59, 1.3783
340.69, 1.3783
340.79, 1.3783
340.89, 1.3783
340.99, 1.3881
341.09, 1.3881
341.20, 1.3832
341.30, 1.3832
341.39, 1.3832
341.50, 1.3832
341.60, 1.3832
341.71, 1.3832
341.80, 1.3832
341.90, 1.3783
342.01, 1.3783
342.11, 1.3783
342.21, 1.3734
342.31, 1.3734
342.41, 1.3783
342.51, 1.3783
342.62, 1.3783
342.71, 1.3783
342.82, 1.3832
342.92, 1.3832
343.02, 1.3734
343.12, 1.3783
343.22, 1.3783
343.32, 1.3734
343.43, 1.3734
343.53, 1.3734
343.63, 1.3734
343.73, 1.3734
343.83, 1.3734
343.93, 1.3734
344.03, 1.3734
344.14, 1.3783
344.24, 1.3783
344.34, 1.3783
344.44, 1.3832
344.54, 1.3881
344.64, 1.3832
344.74, 1.3783
344.85, 1.3734
344.94, 1.3734
345.05, 1.3636
345.15, 1.3685
345.25, 1.3685
345.35, 1.3685
345.46, 1.3734
345.56, 1.3734
345.65, 1.3783
345.76, 1.3783
345.86, 1.3783
345.96, 1.3783
346.06, 1.3783
346.16, 1.3783
346.27, 1.3734
346.36, 1.3685
346.47, 1.3587
346.57, 1.3636
346.67, 1.3685
346.77, 1.3685
346.87, 1.3685
346.97, 1.3685
347.07, 1.3734
347.18, 1.3734
347.28, 1.3734
347.38, 1.3832
347.48, 1.3734
347.58, 1.3734
347.68, 1.3685
347.79, 1.3685
347.88, 1.3685
347.98, 1.3783
348.09, 1.3734
348.19, 1.3685
348.29, 1.3685
348.39, 1.3685
348.49, 1.3636
348.59, 1.3685
348.69, 1.3734
348.80, 1.3734
348.90, 1.3685
349.00, 1.3685
349.10, 1.3636
349.20, 1.3685
349.30, 1.3636
349.41, 1.3685
349.51, 1.3636
349.61, 1.3636
349.71, 1.3636
349.81, 1.3685
349.91, 1.3636
350.01, 1.3636
350.12, 1.3685
350.21, 1.3685
350.31, 1.3685
350.42, 1.3685
350.52, 1.3685
350.62, 1.3636
350.72, 1.3636
350.83, 1.3636
350.93, 1.3636
351.02, 1.3636
351.13, 1.3636
351.23, 1.3636
351.33, 1.3685
351.43, 1.3685
351.53, 1.3783
351.63, 1.3734
351.74, 1.3734
351.84, 1.3636
351.94, 1.3636
352.04, 1.3539
352.14, 1.3587
352.24, 1.3587
352.34, 1.3587
352.45, 1.3587
352.55, 1.3636
352.65, 1.3587
352.75, 1.3587
352.85, 1.3636
352.96, 1.3685
353.05, 1.3636
353.15, 1.3636
353.25, 1.3636
353.36, 1.3636
353.46, 1.3539
353.56, 1.3490
353.66, 1.3539
353.76, 1.3539
353.87, 1.3587
353.97, 1.3539
354.07, 1.3587
354.17, 1.3587
354.27, 1.3636
354.37, 1.3636
354.48, 1.3636
354.58, 1.3636
354.68, 1.3587
354.78, 1.3539
354.88, 1.3539
354.98, 1.3685
355.08, 1.3636
355.18, 1.3539
355.28, 1.3539
355.38, 1.3539
355.49, 1.3490
355.59, 1.3490
355.69, 1.3587
355.79, 1.3587
355.89, 1.3587
356.00, 1.3587
356.09, 1.3587
356.19, 1.3587
356.30, 1.3539
356.40, 1.3539
356.50, 1.3490
356.60, 1.3490
356.71, 1.3490
356.80, 1.3539
356.91, 1.3490
357.01, 1.3490
357.11, 1.3539
357.21, 1.3539
357.31, 1.3587
357.41, 1.3587
357.51, 1.3587
357.62, 1.3587
357.72, 1.3539
357.82, 1.3539
357.92, 1.3490
358.02, 1.3490
358.12, 1.3490
358.22, 1.3490
358.32, 1.3539
358.43, 1.3490
358.53, 1.3636
358.63, 1.3587
358.73, 1.3636
358.83, 1.3539
358.93, 1.3539
359.03, 1.3441
359.14, 1.3490
359.24, 1.3441
359.34, 1.3441
359.44, 1.3441
359.54, 1.3441
359.64, 1.3490
359.74, 1.3441
359.84, 1.3490
359.95, 1.3490
360.04, 1.3539
360.15, 1.3539
360.25, 1.3539
360.35, 1.3539
360.45, 1.3490
360.55, 1.3441
360.65, 1.3441
360.75, 1.3441
360.85, 1.3441
360.96, 1.3441
361.06, 1.3441
361.16, 1.3441
361.27, 1.3441
361.36, 1.3490
361.47, 1.3490
361.56, 1.3490
361.67, 1.3539
361.77, 1.3490
361.87, 1.3539
361.97, 1.3685
362.07, 1.3539
362.17, 1.3441
362.28, 1.3441
362.37, 1.3441
362.48, 1.3392
362.58, 1.3392
362.68, 1.3441
362.79, 1.3441
362.89, 1.3490
362.99, 1.3490
363.09, 1.3490
363.19, 1.3490
363.29, 1.3490
363.39, 1.3441
363.49, 1.3441
363.60, 1.3392
363.70, 1.3441
363.79, 1.3441
363.90, 1.3441
364.00, 1.3343
364.10, 1.3392
364.20, 1.3392
364.30, 1.3490
364.40, 1.3490
364.50, 1.3490
364.60, 1.3539
364.71, 1.3490
364.81, 1.3441
364.92, 1.3441
365.01, 1.3392
365.12, 1.3441
365.22, 1.3392
365.32, 1.3392
365.42, 1.3392
365.52, 1.3539
365.62, 1.3490
365.73, 1.3490
365.82, 1.3490
365.93, 1.3441
366.03, 1.3392
366.13, 1.3392
366.23, 1.3441
366.33, 1.3490
366.43, 1.3392
366.54, 1.3392
366.64, 1.3392
366.73, 1.3392
366.84, 1.3343
366.94, 1.3392
367.04, 1.3392
367.14, 1.3441
367.24, 1.3441
367.34, 1.3490
367.44, 1.3441
367.54, 1.3392
367.65, 1.3441
367.75, 1.3343
367.85, 1.3392
367.95, 1.3343
368.05, 1.3343
368.16, 1.3343
368.25, 1.3343
368.36, 1.3392
368.46, 1.3392
368.56, 1.3392
368.66, 1.3441
368.77, 1.3441
368.87, 1.3441
368.96, 1.3441
369.07, 1.3490
369.17, 1.3441
369.27, 1.3392
369.37, 1.3392
369.47, 1.3343
369.57, 1.3294
369.67, 1.3294
369.78, 1.3343
369.87, 1.3343
369.98, 1.3392
370.08, 1.3343
370.18, 1.3441
370.29, 1.3392
370.39, 1.3392
370.49, 1.3392
370.59, 1.3343
370.69, 1.3343
370.79, 1.3343
370.89, 1.3294
370.99, 1.3245
371.10, 1.3294
371.20, 1.3294
371.30, 1.3294
371.40, 1.3392
371.50, 1.3343
371.60, 1.3392
371.70, 1.3392
371.80, 1.3392
371.90, 1.3441
372.01, 1.3343
372.11, 1.3343
372.21, 1.3343
372.31, 1.3294
372.41, 1.3294
372.51, 1.3490
372.62, 1.3343
372.72, 1.3343
372.81, 1.3343
372.92, 1.3343
373.02, 1.3294
373.12, 1.3343
373.22, 1.3343
373.33, 1.3343
373.42, 1.3294
373.52, 1.3343
373.63, 1.3245
373.73, 1.3294
373.83, 1.3294
373.93, 1.3294
374.03, 1.3294
374.14, 1.3294
374.23, 1.3294
374.33, 1.3294
374.44, 1.3343
374.54, 1.3294
374.64, 1.3294
374.74, 1.3343
374.84, 1.3294
374.95, 1.3245
375.04, 1.3245
375.15, 1.3245
375.25, 1.3245
375.35, 1.3245
375.45, 1.3294
375.55, 1.3245
375.65, 1.3245
375.75, 1.3294
375.86, 1.3343
375.96, 1.3294
376.06, 1.3441
376.16, 1.3343
376.26, 1.3294
376.36, 1.3245
376.47, 1.3245
376.56, 1.3148
376.67, 1.3196
376.77, 1.3196
376.87, 1.3196
376.97, 1.3245
377.07, 1.3245
377.17, 1.3294
377.27, 1.3294
377.38, 1.3294
377.48, 1.3294
377.58, 1.3294
377.68, 1.3245
377.78, 1.3196
377.88, 1.3196
377.99, 1.3196
378.09, 1.3148
378.19, 1.3196
378.29, 1.3196
378.39, 1.3196
378.49, 1.3196
378.59, 1.3196
378.69, 1.3196
378.80, 1.3245
378.90, 1.3196
379.00, 1.3245
379.10, 1.3196
379.20, 1.3148
379.31, 1.3148
379.40, 1.3148
379.50, 1.3294
379.61, 1.3196
379.71, 1.3148
379.81, 1.3148
379.91, 1.3148
380.01, 1.3148
380.11, 1.3148
380.22, 1.3196
380.31, 1.3148
380.42, 1.3148
380.52, 1.3099
380.62, 1.3099
380.72, 1.3099
380.82, 1.3050
380.92, 1.3050
381.03, 1.3050
381.13, 1.3099
381.23, 1.3050
381.33, 1.3099
381.43, 1.3099
381.53, 1.3050
381.64, 1.3148
381.74, 1.3099
381.84, 1.3148
381.94, 1.3099
382.05, 1.3050
382.15, 1.3099
382.24, 1.3050
382.34, 1.3050
382.44, 1.3050
382.55, 1.3099
382.65, 1.3099
382.75, 1.3050
382.85, 1.3099
382.95, 1.3148
383.05, 1.3196
383.16, 1.3196
383.25, 1.3148
383.36, 1.3050
383.46, 1.3050
383.56, 1.2952
383.66, 1.3001
383.76, 1.3001
383.87, 1.3001
383.97, 1.3050
384.07, 1.3001
384.17, 1.3050
384.27, 1.3050
384.37, 1.3099
384.47, 1.3099
384.57, 1.3099
384.67, 1.3148
384.77, 1.3050
384.88, 1.3001
384.98, 1.3001
385.08, 1.2952
385.18, 1.2952
385.28, 1.2952
385.38, 1.3001
385.48, 1.3001
385.59, 1.3001
385.69, 1.3050
385.79, 1.3050
385.89, 1.3050
386.00, 1.3050
386.09, 1.3050
386.20, 1.3050
386.30, 1.3001
386.40, 1.3001
386.50, 1.3001
386.60, 1.3050
386.70, 1.3001
386.80, 1.3001
386.90, 1.3001
387.00, 1.3001
387.11, 1.3001
387.21, 1.3001
387.31, 1.3050
387.41, 1.3050
387.51, 1.3001
387.62, 1.3050
387.71, 1.3001
387.82, 1.3001
387.92, 1.2952
388.02, 1.2952
388.12, 1.2952
388.22, 1.2952
388.33, 1.2952
388.42, 1.3001
388.52, 1.2903
388.63, 1.2952
388.73, 1.3050
388.83, 1.3050
388.93, 1.3050
389.03, 1.3001
389.13, 1.2952
389.24, 1.2952
389.33, 1.2952
389.44, 1.2903
389.54, 1.2903
389.64, 1.2952
389.74, 1.2952
389.84, 1.2952
389.94, 1.2952
390.04, 1.3148
390.15, 1.3099
390.25, 1.3050
390.35, 1.3050
390.45, 1.3001
390.55, 1.2903
390.66, 1.2903
390.75, 1.2952
390.86, 1.2903
390.96, 1.2903
391.06, 1.2854
391.16, 1.2903
391.26, 1.2903
391.36, 1.2952
391.46, 1.2952
391.57, 1.3001
391.67, 1.3001
391.77, 1.3001
391.87, 1.2952
391.97, 1.2952
392.07, 1.2854
392.18, 1.2854
392.28, 1.2854
392.38, 1.2903
392.48, 1.2854
392.58, 1.2903
392.68, 1.2903
392.78, 1.2903
392.89, 1.2903
392.98, 1.2952
393.08, 1.2952
393.19, 1.3001
393.29, 1.2952
393.39, 1.2952
393.49, 1.2903
393.59, 1.3001
393.69, 1.2903
393.79, 1.2903
393.90, 1.2903
394.00, 1.2854
394.10, 1.2854
394.20, 1.2854
394.30, 1.2952
394.44, 1.2903
