Sensor Name: ttx6
Initial Resistance: 80 ohms
Start Time: 2024-11-04 23:02:28
Time (s), Voltage (V)
1.59, 0.3275
1.67, 0.3372
1.88, 0.3421
2.00, 0.3519
2.02, 0.3470
2.03, 0.3519
2.08, 0.3421
2.18, 0.3421
2.31, 0.3372
2.38, 0.3324
2.48, 0.3324
2.58, 0.3324
2.69, 0.3275
2.78, 0.3324
2.93, 0.3275
2.99, 0.3275
3.09, 0.3372
3.19, 0.3372
3.29, 0.3372
3.39, 0.3372
3.49, 0.3421
3.62, 0.3421
3.70, 0.3470
3.80, 0.3470
3.90, 0.3470
4.00, 0.3421
4.11, 0.3372
4.20, 0.3372
4.30, 0.3324
4.41, 0.3275
4.51, 0.3275
4.61, 0.3324
4.71, 0.3275
4.81, 0.3324
4.91, 0.3275
5.02, 0.3324
5.11, 0.3275
5.22, 0.3324
5.32, 0.3324
5.42, 0.3372
5.52, 0.3372
5.62, 0.3421
5.72, 0.3372
5.83, 0.3372
5.93, 0.3372
6.03, 0.3324
6.13, 0.3275
6.23, 0.3275
6.33, 0.3226
6.43, 0.3226
6.53, 0.3177
6.63, 0.3226
6.73, 0.3177
6.83, 0.3226
6.94, 0.3226
7.04, 0.3226
7.14, 0.3226
7.24, 0.3275
7.35, 0.3275
7.45, 0.3324
7.55, 0.3324
7.65, 0.3324
7.76, 0.3324
7.85, 0.3275
7.95, 0.3226
8.05, 0.3226
8.15, 0.3177
8.26, 0.3177
8.35, 0.3177
8.46, 0.3128
8.56, 0.3128
8.66, 0.3128
8.76, 0.3128
8.86, 0.3177
8.96, 0.3226
9.06, 0.3226
9.16, 0.3226
9.27, 0.3275
9.37, 0.3275
9.47, 0.3324
9.57, 0.3275
9.67, 0.3275
9.78, 0.3226
9.87, 0.3226
9.98, 0.3177
10.08, 0.3177
10.18, 0.3177
10.28, 0.3128
10.38, 0.3128
10.48, 0.3128
10.58, 0.3079
10.68, 0.3128
10.79, 0.3177
10.89, 0.3177
10.99, 0.3177
11.09, 0.3226
11.19, 0.3226
11.29, 0.3275
11.39, 0.3275
11.49, 0.3275
11.60, 0.3226
11.70, 0.3275
11.80, 0.3177
11.90, 0.3177
12.00, 0.3128
12.10, 0.3128
12.21, 0.3079
12.31, 0.3128
12.41, 0.3128
12.51, 0.3128
12.61, 0.3128
12.71, 0.3177
12.81, 0.3128
12.91, 0.3226
13.02, 0.3177
13.12, 0.3275
13.22, 0.3275
13.32, 0.3275
13.42, 0.3275
13.52, 0.3275
13.63, 0.3275
13.73, 0.3226
13.82, 0.3177
13.93, 0.3128
14.03, 0.3079
14.13, 0.3128
14.23, 0.3079
14.33, 0.3128
14.43, 0.3079
14.53, 0.3128
14.63, 0.3128
14.74, 0.3128
14.84, 0.3177
14.94, 0.3177
15.04, 0.3226
15.14, 0.3226
15.25, 0.3275
15.35, 0.3275
15.45, 0.3275
15.55, 0.3226
15.65, 0.3226
15.75, 0.3177
15.85, 0.3128
15.95, 0.3128
16.05, 0.3128
16.15, 0.3079
16.25, 0.3079
16.35, 0.3128
16.46, 0.3079
16.56, 0.3128
16.66, 0.3128
16.76, 0.3128
16.86, 0.3177
16.96, 0.3226
17.07, 0.3226
17.17, 0.3275
17.27, 0.3226
17.37, 0.3275
17.47, 0.3226
17.57, 0.3177
17.67, 0.3177
17.77, 0.3128
17.87, 0.3128
17.98, 0.3079
18.08, 0.3128
18.18, 0.3079
18.28, 0.3079
18.39, 0.3079
18.49, 0.3128
18.59, 0.3128
18.68, 0.3128
18.79, 0.3128
18.89, 0.3177
18.99, 0.3226
19.09, 0.3226
19.19, 0.3226
19.29, 0.3226
19.39, 0.3177
19.50, 0.3226
19.60, 0.3177
19.70, 0.3177
19.80, 0.3128
19.90, 0.3079
20.00, 0.3079
20.10, 0.3030
20.20, 0.3030
20.31, 0.3079
20.41, 0.3079
20.51, 0.3079
20.61, 0.3128
20.71, 0.3128
20.82, 0.3177
20.91, 0.3226
21.02, 0.3226
21.12, 0.3177
21.22, 0.3226
21.32, 0.3177
21.42, 0.3177
21.52, 0.3128
21.62, 0.3079
21.73, 0.3079
21.83, 0.3079
21.93, 0.3030
22.03, 0.3030
22.13, 0.3030
22.23, 0.3030
22.33, 0.3030
22.44, 0.3079
22.53, 0.3128
22.63, 0.3079
22.74, 0.3128
22.84, 0.3128
22.94, 0.3177
23.04, 0.3177
23.14, 0.3177
23.25, 0.3128
23.35, 0.3128
23.45, 0.3128
23.55, 0.3079
23.65, 0.3030
23.75, 0.3030
23.85, 0.3030
23.95, 0.3030
24.05, 0.2981
24.16, 0.3030
24.26, 0.2981
24.36, 0.3030
24.46, 0.3030
24.56, 0.3079
24.66, 0.3079
24.76, 0.3128
24.87, 0.3177
24.97, 0.3128
25.07, 0.3177
25.17, 0.3128
25.27, 0.3079
25.37, 0.3030
25.47, 0.3030
25.57, 0.3030
25.68, 0.2933
25.78, 0.2933
25.88, 0.2981
25.98, 0.2981
26.08, 0.2981
26.18, 0.2981
26.28, 0.2981
26.39, 0.2981
26.49, 0.2981
26.59, 0.3079
26.69, 0.3079
26.79, 0.3128
26.89, 0.3128
26.99, 0.3079
27.09, 0.3079
27.20, 0.3030
27.30, 0.3030
27.40, 0.2981
27.50, 0.2981
27.60, 0.3030
27.71, 0.2981
27.80, 0.2981
27.90, 0.2981
28.01, 0.2981
28.11, 0.2981
28.21, 0.2981
28.31, 0.3030
28.41, 0.3030
28.51, 0.3128
28.61, 0.3128
28.72, 0.3128
28.81, 0.3128
28.92, 0.3128
29.02, 0.3079
29.12, 0.3079
29.22, 0.3030
29.32, 0.3030
29.43, 0.3030
29.52, 0.2933
29.62, 0.2981
29.72, 0.2933
29.83, 0.2981
29.93, 0.2981
30.03, 0.2981
30.13, 0.2981
30.23, 0.3030
30.34, 0.3079
30.43, 0.3079
30.54, 0.3128
30.64, 0.3128
30.74, 0.3128
30.84, 0.3128
30.94, 0.3030
31.04, 0.3030
31.15, 0.3030
31.24, 0.2981
31.35, 0.2933
31.45, 0.2933
31.55, 0.2884
31.65, 0.2933
31.75, 0.2933
31.85, 0.2933
31.96, 0.2933
32.05, 0.3030
32.16, 0.2981
32.26, 0.3030
32.36, 0.3030
32.46, 0.3079
32.56, 0.3079
32.67, 0.3079
32.77, 0.3030
32.86, 0.3030
32.97, 0.2981
33.07, 0.2933
33.17, 0.2933
33.27, 0.2884
33.38, 0.2884
33.48, 0.2884
33.58, 0.2933
33.68, 0.2884
33.79, 0.2884
33.88, 0.2933
33.98, 0.2933
34.08, 0.2981
34.18, 0.3030
34.29, 0.3079
34.39, 0.3030
34.49, 0.3030
34.59, 0.3030
34.69, 0.2981
34.79, 0.2933
34.89, 0.2933
34.99, 0.2884
35.09, 0.2884
35.19, 0.2835
35.30, 0.2835
35.40, 0.2835
35.50, 0.2835
35.60, 0.2884
35.70, 0.2884
35.80, 0.2884
35.90, 0.2884
36.01, 0.2981
36.11, 0.2981
36.21, 0.2981
36.31, 0.3030
36.41, 0.3030
36.51, 0.2981
36.61, 0.2933
36.71, 0.2884
36.81, 0.2835
36.92, 0.2835
37.02, 0.2835
37.12, 0.2835
37.22, 0.2835
37.32, 0.2835
37.42, 0.2835
37.53, 0.2835
37.63, 0.2835
37.73, 0.2884
37.83, 0.2933
37.93, 0.2933
38.03, 0.2933
38.13, 0.3030
38.23, 0.2981
38.34, 0.2933
38.44, 0.2933
38.54, 0.2884
38.64, 0.2884
38.74, 0.2835
38.84, 0.2786
38.95, 0.2786
39.04, 0.2786
39.14, 0.2786
39.25, 0.2786
39.35, 0.2786
39.45, 0.2786
39.55, 0.2835
39.65, 0.2835
39.75, 0.2933
39.86, 0.2933
39.96, 0.2981
40.06, 0.2933
40.16, 0.2933
40.26, 0.2933
40.36, 0.2884
40.47, 0.2835
40.56, 0.2835
40.67, 0.2786
40.77, 0.2737
40.87, 0.2737
40.97, 0.2737
41.07, 0.2737
41.17, 0.2786
41.27, 0.2786
41.37, 0.2835
41.48, 0.2835
41.58, 0.2835
41.68, 0.2933
41.78, 0.2884
41.88, 0.2933
41.98, 0.2933
42.08, 0.2933
42.18, 0.2884
42.28, 0.2835
42.39, 0.2786
42.49, 0.2786
42.59, 0.2737
42.69, 0.2737
42.80, 0.2737
42.89, 0.2737
42.99, 0.2737
43.10, 0.2737
43.20, 0.2737
43.30, 0.2786
43.40, 0.2786
43.50, 0.2835
43.60, 0.2835
43.70, 0.2884
43.80, 0.2884
43.90, 0.2884
44.01, 0.2884
44.11, 0.2835
44.21, 0.2835
44.31, 0.2786
44.41, 0.2737
44.51, 0.2737
44.62, 0.2688
44.72, 0.2737
44.82, 0.2737
44.92, 0.2737
45.02, 0.2786
45.12, 0.2737
45.22, 0.2786
45.32, 0.2786
45.43, 0.2835
45.53, 0.2835
45.63, 0.2884
45.73, 0.2835
45.84, 0.2884
45.93, 0.2835
46.04, 0.2835
46.14, 0.2786
46.24, 0.2737
46.34, 0.2737
46.44, 0.2737
46.54, 0.2688
46.64, 0.2737
46.74, 0.2688
46.84, 0.2688
46.94, 0.2737
47.04, 0.2737
47.15, 0.2737
47.25, 0.2786
47.35, 0.2786
47.45, 0.2835
47.55, 0.2835
47.65, 0.2835
47.76, 0.2835
47.86, 0.2835
47.96, 0.2835
48.06, 0.2786
48.16, 0.2737
48.26, 0.2688
48.37, 0.2737
48.47, 0.2688
48.56, 0.2688
48.67, 0.2688
48.77, 0.2688
48.87, 0.2688
48.97, 0.2688
49.08, 0.2688
49.17, 0.2737
49.28, 0.2737
49.38, 0.2835
49.48, 0.2835
49.58, 0.2835
49.68, 0.2835
49.78, 0.2786
49.89, 0.2786
49.99, 0.2737
50.09, 0.2737
50.19, 0.2688
50.29, 0.2688
50.39, 0.2639
50.49, 0.2688
50.59, 0.2639
50.70, 0.2639
50.79, 0.2639
50.90, 0.2688
50.99, 0.2688
51.10, 0.2688
51.20, 0.2688
51.30, 0.2737
51.40, 0.2786
51.50, 0.2786
51.61, 0.2786
51.70, 0.2786
51.81, 0.2786
51.91, 0.2737
52.01, 0.2737
52.11, 0.2688
52.21, 0.2639
52.31, 0.2590
52.41, 0.2639
52.52, 0.2590
52.62, 0.2639
52.72, 0.2590
52.82, 0.2639
52.92, 0.2639
53.02, 0.2688
53.13, 0.2688
53.23, 0.2737
53.32, 0.2786
53.43, 0.2737
53.53, 0.2786
53.63, 0.2737
53.73, 0.2737
53.83, 0.2688
53.94, 0.2688
54.04, 0.2639
54.14, 0.2590
54.24, 0.2639
54.34, 0.2590
54.44, 0.2590
54.54, 0.2590
54.64, 0.2590
54.74, 0.2590
54.85, 0.2590
54.95, 0.2639
55.05, 0.2639
55.15, 0.2688
55.25, 0.2737
55.35, 0.2737
55.45, 0.2737
55.56, 0.2786
55.65, 0.2786
55.76, 0.2688
55.86, 0.2688
55.96, 0.2639
56.06, 0.2590
56.16, 0.2590
56.26, 0.2590
56.36, 0.2590
56.47, 0.2590
56.57, 0.2590
56.67, 0.2590
56.77, 0.2590
56.87, 0.2639
56.97, 0.2639
57.07, 0.2688
57.18, 0.2688
57.28, 0.2737
57.38, 0.2737
57.48, 0.2737
57.58, 0.2737
57.68, 0.2688
57.78, 0.2639
57.88, 0.2639
57.99, 0.2639
58.09, 0.2590
58.19, 0.2590
58.29, 0.2590
58.39, 0.2542
58.49, 0.2590
58.59, 0.2590
58.69, 0.2590
58.80, 0.2639
58.90, 0.2639
59.00, 0.2639
59.10, 0.2688
59.20, 0.2737
59.30, 0.2737
59.40, 0.2737
59.51, 0.2737
59.62, 0.2688
59.71, 0.2688
59.81, 0.2590
59.91, 0.2590
60.01, 0.2542
60.11, 0.2542
60.21, 0.2542
60.32, 0.2542
60.42, 0.2542
60.52, 0.2542
60.62, 0.2590
60.72, 0.2542
60.82, 0.2590
60.92, 0.2590
61.02, 0.2639
61.13, 0.2639
61.23, 0.2688
61.33, 0.2737
61.43, 0.2688
61.53, 0.2688
61.64, 0.2639
61.73, 0.2590
61.83, 0.2590
61.93, 0.2542
62.04, 0.2542
62.14, 0.2542
62.24, 0.2542
62.34, 0.2542
62.44, 0.2542
62.55, 0.2542
62.64, 0.2542
62.75, 0.2542
62.84, 0.2590
62.95, 0.2590
63.05, 0.2688
63.15, 0.2688
63.25, 0.2688
63.36, 0.2639
63.45, 0.2688
63.56, 0.2639
63.66, 0.2590
63.76, 0.2542
63.86, 0.2542
63.96, 0.2542
64.06, 0.2493
64.16, 0.2493
64.27, 0.2493
64.37, 0.2493
64.47, 0.2493
64.57, 0.2542
64.67, 0.2542
64.78, 0.2542
64.88, 0.2590
64.98, 0.2639
65.07, 0.2688
65.18, 0.2688
65.28, 0.2639
65.38, 0.2688
65.48, 0.2639
65.58, 0.2590
65.68, 0.2590
65.79, 0.2542
65.88, 0.2493
65.99, 0.2493
66.09, 0.2493
66.19, 0.2493
66.29, 0.2493
66.40, 0.2493
66.49, 0.2542
66.59, 0.2542
66.70, 0.2542
66.80, 0.2590
66.90, 0.2639
67.00, 0.2639
67.10, 0.2639
67.20, 0.2639
67.31, 0.2639
67.40, 0.2639
67.50, 0.2590
67.61, 0.2590
67.71, 0.2542
67.81, 0.2542
67.91, 0.2493
68.01, 0.2493
68.12, 0.2444
68.21, 0.2493
68.32, 0.2493
68.42, 0.2493
68.52, 0.2542
68.62, 0.2542
68.72, 0.2542
68.82, 0.2590
68.93, 0.2590
69.02, 0.2639
69.13, 0.2688
69.23, 0.2688
69.33, 0.2639
69.43, 0.2590
69.53, 0.2590
69.63, 0.2542
69.74, 0.2542
69.84, 0.2493
69.94, 0.2493
70.04, 0.2493
70.14, 0.2493
70.24, 0.2493
70.34, 0.2493
70.45, 0.2493
70.55, 0.2493
70.65, 0.2542
70.75, 0.2590
70.85, 0.2590
70.95, 0.2639
71.05, 0.2639
71.15, 0.2639
71.26, 0.2590
71.36, 0.2590
71.46, 0.2542
71.56, 0.2493
71.66, 0.2493
71.76, 0.2444
71.86, 0.2493
71.96, 0.2493
72.06, 0.2444
72.17, 0.2493
72.27, 0.2493
72.37, 0.2493
72.47, 0.2493
72.57, 0.2542
72.67, 0.2542
72.77, 0.2639
72.87, 0.2639
72.97, 0.2590
73.08, 0.2590
73.18, 0.2639
73.28, 0.2590
73.38, 0.2542
73.48, 0.2542
73.59, 0.2493
73.68, 0.2444
73.78, 0.2444
73.89, 0.2444
73.99, 0.2444
74.09, 0.2444
74.19, 0.2444
74.29, 0.2444
74.40, 0.2493
74.49, 0.2493
74.60, 0.2542
74.70, 0.2590
74.80, 0.2590
74.90, 0.2590
75.00, 0.2590
75.10, 0.2590
75.20, 0.2542
75.30, 0.2493
75.41, 0.2444
75.51, 0.2493
75.61, 0.2444
75.71, 0.2395
75.81, 0.2395
75.91, 0.2444
76.01, 0.2395
76.12, 0.2444
76.22, 0.2444
76.32, 0.2444
76.42, 0.2493
76.52, 0.2493
76.62, 0.2542
76.72, 0.2590
76.83, 0.2590
76.93, 0.2590
77.03, 0.2590
77.13, 0.2590
77.23, 0.2493
77.33, 0.2493
77.43, 0.2444
77.53, 0.2395
77.63, 0.2444
77.74, 0.2395
77.84, 0.2444
77.94, 0.2395
78.04, 0.2395
78.14, 0.2444
78.24, 0.2444
78.34, 0.2493
78.45, 0.2493
78.55, 0.2493
78.65, 0.2542
78.75, 0.2542
78.85, 0.2590
78.95, 0.2542
79.05, 0.2542
79.16, 0.2542
79.25, 0.2493
79.36, 0.2444
79.46, 0.2395
79.56, 0.2395
79.66, 0.2395
79.76, 0.2395
79.87, 0.2395
79.97, 0.2395
80.07, 0.2395
80.17, 0.2444
80.27, 0.2444
80.37, 0.2444
80.47, 0.2493
80.58, 0.2542
80.67, 0.2542
80.78, 0.2542
80.87, 0.2542
80.98, 0.2542
81.08, 0.2493
81.18, 0.2493
81.28, 0.2444
81.38, 0.2395
81.49, 0.2395
81.59, 0.2395
81.69, 0.2395
81.79, 0.2395
81.89, 0.2395
81.99, 0.2395
82.09, 0.2395
82.20, 0.2395
82.29, 0.2444
82.39, 0.2444
82.50, 0.2493
82.60, 0.2542
82.70, 0.2542
82.80, 0.2542
82.90, 0.2542
83.01, 0.2444
83.10, 0.2444
83.20, 0.2444
83.31, 0.2395
83.41, 0.2395
83.51, 0.2346
83.61, 0.2346
83.71, 0.2346
83.82, 0.2346
83.92, 0.2346
84.02, 0.2395
84.12, 0.2395
84.22, 0.2395
84.32, 0.2395
84.42, 0.2493
84.52, 0.2493
84.62, 0.2493
84.73, 0.2542
84.83, 0.2493
84.93, 0.2493
85.03, 0.2444
85.13, 0.2395
85.24, 0.2395
85.34, 0.2346
85.44, 0.2395
85.53, 0.2346
85.63, 0.2346
85.74, 0.2346
85.84, 0.2346
85.94, 0.2346
86.05, 0.2346
86.15, 0.2395
86.25, 0.2444
86.35, 0.2493
86.45, 0.2493
86.55, 0.2493
86.65, 0.2493
86.75, 0.2493
86.85, 0.2444
86.96, 0.2444
87.05, 0.2395
87.16, 0.2395
87.26, 0.2346
87.36, 0.2297
87.46, 0.2346
87.56, 0.2346
87.66, 0.2346
87.76, 0.2297
87.87, 0.2346
87.97, 0.2346
88.07, 0.2395
88.17, 0.2395
88.27, 0.2444
88.38, 0.2493
88.48, 0.2493
88.58, 0.2493
88.68, 0.2493
88.77, 0.2444
88.88, 0.2444
88.98, 0.2444
89.08, 0.2395
89.18, 0.2346
89.29, 0.2297
89.39, 0.2297
89.48, 0.2297
89.59, 0.2297
89.69, 0.2346
89.79, 0.2346
89.89, 0.2346
89.99, 0.2346
90.09, 0.2395
90.19, 0.2395
90.30, 0.2444
90.40, 0.2493
90.50, 0.2493
90.60, 0.2493
90.70, 0.2542
90.80, 0.2444
90.90, 0.2444
91.01, 0.2346
91.11, 0.2346
91.21, 0.2297
91.31, 0.2297
91.41, 0.2297
91.51, 0.2297
91.61, 0.2297
91.71, 0.2297
91.82, 0.2346
91.91, 0.2346
92.02, 0.2346
92.12, 0.2395
92.22, 0.2444
92.32, 0.2444
92.43, 0.2493
92.53, 0.2444
92.63, 0.2493
92.73, 0.2444
92.83, 0.2395
92.93, 0.2395
93.03, 0.2346
93.13, 0.2297
93.23, 0.2297
93.33, 0.2297
93.44, 0.2297
93.54, 0.2346
93.64, 0.2297
93.74, 0.2297
93.84, 0.2346
93.94, 0.2346
94.04, 0.2346
94.15, 0.2444
94.24, 0.2444
94.35, 0.2444
94.45, 0.2493
94.55, 0.2444
94.65, 0.2444
94.75, 0.2395
94.85, 0.2395
94.95, 0.2346
95.06, 0.2297
95.16, 0.2297
95.26, 0.2297
95.36, 0.2248
95.46, 0.2248
95.56, 0.2248
95.66, 0.2297
95.76, 0.2297
95.86, 0.2297
95.97, 0.2395
96.07, 0.2395
96.17, 0.2444
96.27, 0.2444
96.37, 0.2444
96.47, 0.2395
96.58, 0.2444
96.68, 0.2395
96.78, 0.2346
96.88, 0.2346
96.98, 0.2297
97.08, 0.2297
97.18, 0.2297
97.29, 0.2248
97.39, 0.2248
97.49, 0.2297
97.59, 0.2297
97.69, 0.2297
97.79, 0.2346
97.89, 0.2346
97.99, 0.2395
98.09, 0.2444
98.20, 0.2395
98.30, 0.2395
98.40, 0.2444
98.50, 0.2444
98.60, 0.2395
98.70, 0.2395
98.81, 0.2346
98.91, 0.2297
99.01, 0.2297
99.11, 0.2248
99.21, 0.2248
99.31, 0.2297
99.41, 0.2248
99.51, 0.2297
99.61, 0.2297
99.71, 0.2297
99.82, 0.2346
99.92, 0.2346
100.02, 0.2346
100.12, 0.2444
100.22, 0.2444
100.32, 0.2444
100.43, 0.2444
100.53, 0.2395
100.63, 0.2346
100.73, 0.2346
100.83, 0.2346
100.93, 0.2297
101.03, 0.2248
101.13, 0.2248
101.24, 0.2248
101.34, 0.2297
101.44, 0.2297
101.54, 0.2297
101.64, 0.2297
101.74, 0.2297
101.84, 0.2346
101.94, 0.2346
102.05, 0.2395
102.15, 0.2444
102.25, 0.2395
102.35, 0.2444
102.45, 0.2395
102.55, 0.2395
102.65, 0.2346
102.76, 0.2297
102.86, 0.2297
102.96, 0.2297
103.06, 0.2248
103.16, 0.2248
103.26, 0.2248
103.36, 0.2248
103.46, 0.2248
103.56, 0.2297
103.67, 0.2297
103.77, 0.2297
103.87, 0.2346
103.97, 0.2346
104.07, 0.2395
104.17, 0.2444
104.27, 0.2395
104.38, 0.2395
104.47, 0.2346
104.58, 0.2297
104.68, 0.2297
104.78, 0.2297
104.88, 0.2248
104.99, 0.2248
105.08, 0.2248
105.19, 0.2199
105.29, 0.2199
105.38, 0.2248
105.49, 0.2248
105.59, 0.2297
105.70, 0.2297
105.80, 0.2346
105.90, 0.2395
106.00, 0.2395
106.10, 0.2395
106.20, 0.2395
106.30, 0.2346
106.40, 0.2346
106.50, 0.2297
106.61, 0.2297
106.71, 0.2297
106.81, 0.2199
106.91, 0.2199
107.05, 0.2248
107.20, 0.2199
107.22, 0.2199
107.32, 0.2248
107.43, 0.2248
107.52, 0.2248
107.62, 0.2297
107.72, 0.2346
107.82, 0.2346
107.92, 0.2395
108.03, 0.2395
108.13, 0.2395
108.22, 0.2395
108.33, 0.2346
108.42, 0.2297
108.54, 0.2297
108.63, 0.2248
108.73, 0.2199
108.83, 0.2248
108.93, 0.2199
109.03, 0.2248
109.14, 0.2199
109.24, 0.2199
109.34, 0.2248
109.45, 0.2248
109.55, 0.2297
109.64, 0.2297
109.74, 0.2346
109.85, 0.2346
109.95, 0.2395
110.05, 0.2346
110.15, 0.2346
110.25, 0.2297
110.35, 0.2297
110.45, 0.2297
110.56, 0.2199
110.65, 0.2199
110.75, 0.2199
110.86, 0.2199
110.96, 0.2199
111.06, 0.2199
111.16, 0.2199
111.26, 0.2199
111.36, 0.2248
111.47, 0.2248
111.57, 0.2297
111.67, 0.2346
111.77, 0.2395
111.87, 0.2346
111.97, 0.2346
112.07, 0.2346
112.22, 0.2346
112.32, 0.2297
112.38, 0.2248
112.48, 0.2248
112.58, 0.2199
112.68, 0.2199
112.79, 0.2199
112.88, 0.2199
112.99, 0.2199
113.09, 0.2248
113.18, 0.2199
113.29, 0.2248
113.39, 0.2248
113.49, 0.2248
113.60, 0.2346
113.69, 0.2346
113.79, 0.2346
113.89, 0.2346
113.99, 0.2346
114.10, 0.2297
114.21, 0.2297
114.30, 0.2248
114.40, 0.2248
114.51, 0.2199
114.61, 0.2199
114.71, 0.2199
114.81, 0.2199
114.91, 0.2199
115.01, 0.2199
115.11, 0.2199
115.21, 0.2248
115.32, 0.2248
115.42, 0.2248
115.52, 0.2297
115.63, 0.2346
115.72, 0.2346
115.83, 0.2346
115.93, 0.2346
116.02, 0.2346
116.12, 0.2297
116.23, 0.2248
116.32, 0.2248
116.43, 0.2199
116.53, 0.2199
116.63, 0.2151
116.74, 0.2151
116.83, 0.2199
116.93, 0.2199
117.04, 0.2151
117.14, 0.2199
117.24, 0.2199
117.34, 0.2297
117.44, 0.2297
117.54, 0.2297
117.64, 0.2346
117.74, 0.2297
117.85, 0.2297
117.95, 0.2297
118.05, 0.2297
118.15, 0.2248
118.26, 0.2199
118.35, 0.2199
118.45, 0.2199
118.55, 0.2151
118.66, 0.2151
118.75, 0.2199
118.86, 0.2151
118.96, 0.2199
119.06, 0.2199
119.17, 0.2199
119.26, 0.2199
119.37, 0.2248
119.47, 0.2297
119.57, 0.2346
119.67, 0.2297
119.77, 0.2346
119.88, 0.2297
119.98, 0.2248
120.08, 0.2248
120.18, 0.2199
120.28, 0.2199
120.38, 0.2199
120.48, 0.2151
120.59, 0.2151
120.68, 0.2151
120.78, 0.2151
120.89, 0.2199
120.99, 0.2199
121.08, 0.2199
121.19, 0.2248
121.29, 0.2248
121.39, 0.2297
121.50, 0.2297
121.60, 0.2297
121.69, 0.2297
121.79, 0.2248
121.90, 0.2248
122.00, 0.2199
122.10, 0.2151
122.20, 0.2151
122.31, 0.2199
122.41, 0.2151
122.50, 0.2297
122.61, 0.2346
122.71, 0.2199
122.81, 0.2151
122.91, 0.2199
123.01, 0.2199
123.11, 0.2248
123.21, 0.2248
123.32, 0.2297
123.42, 0.2297
123.52, 0.2297
123.62, 0.2297
123.72, 0.2248
123.82, 0.2199
123.92, 0.2199
124.02, 0.2199
124.13, 0.2151
124.22, 0.2151
124.33, 0.2151
124.43, 0.2151
124.53, 0.2151
124.63, 0.2151
124.73, 0.2151
124.84, 0.2151
124.94, 0.2199
125.04, 0.2248
125.14, 0.2248
125.24, 0.2297
125.34, 0.2297
125.44, 0.2297
125.54, 0.2248
125.65, 0.2248
125.75, 0.2248
125.85, 0.2199
125.95, 0.2151
126.05, 0.2151
126.15, 0.2151
126.25, 0.2102
126.35, 0.2102
126.45, 0.2102
126.55, 0.2151
126.65, 0.2199
126.76, 0.2151
126.86, 0.2199
126.96, 0.2248
127.06, 0.2248
127.17, 0.2297
127.26, 0.2297
127.37, 0.2248
127.47, 0.2297
127.57, 0.2199
127.67, 0.2151
127.77, 0.2151
127.87, 0.2151
127.98, 0.2151
128.08, 0.2151
128.18, 0.2102
128.28, 0.2102
128.38, 0.2102
128.48, 0.2151
128.58, 0.2151
128.68, 0.2199
128.78, 0.2199
128.89, 0.2248
128.99, 0.2297
129.09, 0.2297
129.19, 0.2248
129.32, 0.2297
129.41, 0.2297
129.49, 0.2199
129.60, 0.2199
129.69, 0.2151
129.80, 0.2102
129.90, 0.2151
130.00, 0.2102
130.10, 0.2151
130.20, 0.2151
130.31, 0.2151
130.40, 0.2151
130.51, 0.2199
130.61, 0.2199
130.71, 0.2248
130.81, 0.2248
130.91, 0.2248
131.01, 0.2297
131.11, 0.2248
131.22, 0.2297
131.32, 0.2199
131.42, 0.2199
131.52, 0.2151
131.62, 0.2151
131.73, 0.2151
131.82, 0.2102
131.93, 0.2151
132.03, 0.2102
132.13, 0.2151
132.23, 0.2102
132.33, 0.2151
132.43, 0.2199
132.53, 0.2199
132.63, 0.2248
132.74, 0.2248
132.84, 0.2297
132.94, 0.2297
133.04, 0.2248
133.14, 0.2248
133.24, 0.2199
133.34, 0.2199
133.44, 0.2151
133.54, 0.2151
133.65, 0.2102
133.75, 0.2102
133.85, 0.2102
133.95, 0.2102
134.05, 0.2151
134.15, 0.2151
134.26, 0.2151
134.36, 0.2199
134.45, 0.2151
134.56, 0.2248
134.66, 0.2297
134.76, 0.2248
134.86, 0.2297
134.96, 0.2297
135.07, 0.2199
135.16, 0.2151
135.27, 0.2151
135.37, 0.2151
135.47, 0.2102
135.57, 0.2102
135.67, 0.2102
135.77, 0.2102
135.87, 0.2053
135.98, 0.2151
136.07, 0.2151
136.18, 0.2151
136.28, 0.2199
136.38, 0.2199
136.49, 0.2248
136.58, 0.2248
136.69, 0.2248
136.78, 0.2248
136.89, 0.2248
136.99, 0.2199
137.09, 0.2151
137.19, 0.2151
137.29, 0.2102
137.40, 0.2102
137.50, 0.2102
137.60, 0.2102
137.70, 0.2053
137.80, 0.2102
137.90, 0.2102
138.00, 0.2199
138.10, 0.2151
138.20, 0.2151
138.31, 0.2199
138.40, 0.2248
138.51, 0.2248
138.61, 0.2346
138.71, 0.2493
138.83, 0.2542
138.91, 0.2542
139.02, 0.2493
139.12, 0.2199
139.22, 0.2151
139.32, 0.2102
139.42, 0.2102
139.52, 0.2102
139.62, 0.2102
139.73, 0.2053
139.83, 0.2102
139.93, 0.2102
140.03, 0.2151
140.13, 0.2199
140.23, 0.2346
140.33, 0.2444
140.43, 0.2444
140.54, 0.2444
140.64, 0.2493
140.74, 0.2444
140.84, 0.2395
140.94, 0.2346
141.04, 0.2297
141.14, 0.2248
141.24, 0.2248
141.34, 0.2248
141.45, 0.2199
141.54, 0.2199
141.65, 0.2151
141.75, 0.2151
141.85, 0.2151
141.95, 0.2151
142.05, 0.2199
142.15, 0.2248
142.26, 0.2248
142.36, 0.2199
142.46, 0.2199
142.56, 0.2199
142.66, 0.2151
142.76, 0.2102
142.86, 0.2102
142.96, 0.2102
143.06, 0.2102
143.17, 0.2102
143.27, 0.2102
143.37, 0.2053
143.47, 0.2053
143.57, 0.2102
143.67, 0.2151
143.78, 0.2102
143.88, 0.2151
143.98, 0.2199
144.08, 0.2199
144.18, 0.2248
144.28, 0.2248
144.38, 0.2199
144.48, 0.2199
144.58, 0.2151
144.68, 0.2102
144.79, 0.2053
144.89, 0.2053
144.99, 0.2053
145.09, 0.2053
145.19, 0.2102
145.29, 0.2053
145.39, 0.2053
145.50, 0.2102
145.60, 0.2102
145.70, 0.2102
145.80, 0.2151
145.90, 0.2199
146.00, 0.2199
146.10, 0.2199
146.21, 0.2199
146.31, 0.2199
146.41, 0.2151
146.51, 0.2102
146.61, 0.2102
146.71, 0.2053
146.81, 0.2053
146.91, 0.2053
147.01, 0.2053
147.11, 0.2053
147.22, 0.2053
147.32, 0.2102
147.42, 0.2102
147.52, 0.2102
147.62, 0.2102
147.72, 0.2151
147.82, 0.2199
147.92, 0.2199
148.03, 0.2199
148.13, 0.2199
148.23, 0.2199
148.33, 0.2151
148.43, 0.2102
148.53, 0.2102
148.64, 0.2053
148.74, 0.2053
148.84, 0.2053
148.94, 0.2004
149.04, 0.2004
149.14, 0.2004
149.24, 0.2053
149.35, 0.2102
149.45, 0.2102
149.55, 0.2102
149.65, 0.2199
149.75, 0.2199
149.85, 0.2151
149.95, 0.2151
150.05, 0.2199
150.16, 0.2151
150.26, 0.2102
150.35, 0.2102
150.46, 0.2053
150.56, 0.2004
150.66, 0.2053
150.76, 0.2004
150.86, 0.2053
150.96, 0.2053
151.07, 0.2004
151.17, 0.2053
151.27, 0.2053
151.37, 0.2102
151.47, 0.2102
151.58, 0.2151
151.68, 0.2151
151.78, 0.2151
151.88, 0.2199
151.98, 0.2151
152.08, 0.2151
152.18, 0.2102
152.28, 0.2053
152.39, 0.2053
152.49, 0.2053
152.59, 0.2053
152.69, 0.2053
152.79, 0.2053
152.89, 0.2053
152.99, 0.2053
153.10, 0.2053
153.20, 0.2053
153.30, 0.2102
153.40, 0.2151
153.50, 0.2151
153.60, 0.2151
153.70, 0.2199
153.80, 0.2199
153.90, 0.2151
154.00, 0.2151
154.10, 0.2102
154.21, 0.2053
154.31, 0.2053
154.41, 0.2004
154.51, 0.2004
154.61, 0.2053
154.71, 0.2053
154.81, 0.2053
154.92, 0.2053
155.02, 0.2102
155.12, 0.2053
155.22, 0.2102
155.32, 0.2151
155.42, 0.2151
155.52, 0.2151
155.63, 0.2199
155.72, 0.2151
155.83, 0.2102
155.93, 0.2102
156.03, 0.2053
156.13, 0.2053
156.24, 0.2004
156.33, 0.2004
156.44, 0.2004
156.54, 0.2053
156.64, 0.2004
156.74, 0.2053
156.84, 0.2053
156.94, 0.2053
157.04, 0.2053
157.15, 0.2102
157.24, 0.2151
157.35, 0.2151
157.46, 0.2151
157.55, 0.2199
157.65, 0.2151
157.75, 0.2102
157.86, 0.2053
157.95, 0.2053
158.05, 0.2004
158.16, 0.2053
158.26, 0.2004
158.36, 0.2004
158.46, 0.2004
158.56, 0.2053
158.66, 0.2004
158.77, 0.2053
158.87, 0.2053
158.97, 0.2053
159.07, 0.2102
159.17, 0.2151
159.28, 0.2151
159.37, 0.2151
159.48, 0.2151
159.57, 0.2102
159.68, 0.2102
159.78, 0.2053
159.88, 0.2053
159.98, 0.2053
160.08, 0.2004
160.18, 0.2004
160.29, 0.2004
160.39, 0.2004
160.49, 0.2004
160.59, 0.2004
160.69, 0.2004
160.79, 0.2102
160.89, 0.2102
160.99, 0.2102
161.10, 0.2151
161.20, 0.2151
161.30, 0.2151
161.40, 0.2151
161.50, 0.2102
161.60, 0.2102
161.70, 0.2053
161.80, 0.2004
161.90, 0.2004
162.01, 0.2004
162.11, 0.2004
162.20, 0.2004
162.31, 0.2004
162.41, 0.2004
162.51, 0.2053
162.61, 0.2053
162.72, 0.2102
162.82, 0.2102
162.91, 0.2102
163.02, 0.2151
163.12, 0.2199
163.22, 0.2151
163.33, 0.2102
163.43, 0.2102
163.52, 0.2102
163.63, 0.2053
163.73, 0.2004
163.83, 0.2004
163.93, 0.1955
164.03, 0.2004
164.13, 0.2004
164.23, 0.2004
164.34, 0.2004
164.43, 0.2053
164.54, 0.2053
164.64, 0.2102
164.74, 0.2102
164.84, 0.2151
164.94, 0.2151
165.04, 0.2151
165.15, 0.2151
165.25, 0.2151
165.35, 0.2102
165.45, 0.2248
165.55, 0.2102
165.65, 0.2297
165.75, 0.2102
165.85, 0.2053
165.96, 0.2395
166.06, 0.2346
166.16, 0.2151
166.26, 0.2053
166.36, 0.2053
166.46, 0.2053
166.56, 0.2102
166.66, 0.2151
166.76, 0.2151
166.86, 0.2151
166.97, 1.4418
167.07, 1.8866
167.17, 2.0039
167.27, 1.8524
167.37, 1.7986
167.47, 1.7986
167.57, 0.8211
167.67, 0.4497
167.78, 0.3177
167.88, 0.2688
167.98, 0.2395
168.08, 0.2297
168.19, 0.2199
168.29, 0.2199
168.39, 0.2248
168.49, 0.2248
168.59, 0.2248
168.69, 0.2248
168.79, 0.2248
168.89, 0.2248
168.99, 0.2199
169.10, 0.2102
169.19, 0.2102
169.30, 0.2053
169.40, 0.2053
169.50, 0.2053
169.60, 0.2053
169.70, 0.2004
169.80, 0.2053
169.90, 0.2004
170.00, 0.2053
170.11, 0.2102
170.21, 0.2102
170.31, 0.2102
170.41, 0.2151
170.52, 0.2199
170.62, 0.2199
170.72, 0.2151
170.82, 0.2151
170.92, 0.2151
171.02, 0.2102
171.12, 0.2053
171.22, 0.2004
171.32, 0.2004
171.42, 0.2004
171.53, 0.2004
171.62, 0.2004
171.73, 0.2004
171.83, 0.2004
171.93, 0.2053
172.03, 0.2102
172.13, 0.2053
172.23, 0.2151
172.33, 0.2199
172.43, 0.2199
172.54, 0.2151
172.64, 0.2151
172.74, 0.2151
172.84, 0.2053
172.94, 0.2053
173.04, 0.2053
173.15, 0.2004
173.25, 0.2004
173.35, 0.2004
173.45, 0.2004
173.55, 0.2004
173.65, 0.2004
173.75, 0.2004
173.86, 0.2053
173.96, 0.2102
174.06, 0.2102
174.16, 0.2151
174.26, 0.2151
174.36, 0.2151
174.47, 0.2151
174.56, 0.2151
174.67, 0.2102
174.77, 0.2102
174.87, 0.2053
174.97, 0.2004
175.07, 0.2004
175.17, 0.2004
175.27, 0.1955
175.37, 0.1955
175.48, 0.2004
175.58, 0.2004
175.68, 0.2004
175.78, 0.2102
175.88, 0.2102
175.99, 0.2102
176.08, 0.2151
176.18, 0.2151
176.29, 0.2151
176.39, 0.2199
176.49, 0.2151
176.59, 0.2248
176.69, 0.2444
176.80, 1.5005
176.89, 1.5103
176.99, 0.6647
177.10, 0.3763
177.20, 0.5670
177.30, 0.7820
177.40, 1.0899
177.50, 1.2757
177.60, 1.3832
177.71, 1.2561
177.80, 1.3539
177.90, 0.6403
178.01, 0.5670
178.11, 0.3617
178.21, 0.2884
178.31, 0.2542
178.41, 0.2346
178.51, 0.2248
178.62, 0.2248
178.72, 0.2151
178.82, 0.2102
178.92, 0.2102
179.02, 0.2102
179.12, 0.2102
179.22, 0.2151
179.33, 0.2102
179.42, 0.2493
179.53, 0.5181
179.63, 0.6061
179.73, 0.4448
179.83, 0.3177
179.93, 0.2737
180.03, 0.7136
180.14, 2.5904
180.23, 3.3578
180.34, 3.1720
180.44, 3.2600
180.54, 2.5415
180.64, 1.4125
180.74, 0.6745
180.85, 0.7087
180.94, 2.7273
181.04, 1.8964
181.15, 1.5445
181.25, 1.5103
181.35, 1.4076
181.45, 0.7136
181.55, 0.4448
181.66, 0.3372
181.76, 0.2884
181.86, 0.2639
181.96, 0.2493
182.06, 0.2395
182.16, 0.2297
182.27, 0.2248
182.37, 0.2199
182.47, 0.2199
182.57, 0.2199
182.67, 0.2151
182.77, 0.2151
182.87, 0.2151
182.97, 0.2151
183.07, 0.2151
183.18, 0.2199
183.28, 0.2199
183.38, 0.2248
183.48, 0.2248
183.58, 0.2248
183.68, 0.2199
183.78, 0.2199
183.88, 0.2151
183.99, 0.2102
184.09, 0.2102
184.19, 0.2102
184.29, 0.2053
184.39, 0.2053
184.49, 0.2053
184.59, 0.2053
184.69, 0.2053
184.79, 0.2053
184.90, 0.2102
185.00, 0.2102
185.10, 0.2151
185.20, 0.2199
185.34, 0.2199
185.41, 0.2151
185.50, 0.2151
185.61, 0.2151
185.71, 0.2151
185.81, 0.2102
185.91, 0.2053
186.01, 0.2053
186.11, 0.2004
186.21, 0.2004
186.31, 0.2004
186.41, 0.2004
186.52, 0.2053
186.62, 0.2053
186.72, 0.2053
186.82, 0.2102
186.92, 0.2053
187.02, 0.2102
187.13, 0.2151
187.23, 0.2151
187.33, 0.2151
187.43, 0.2102
187.53, 0.2102
187.63, 0.2053
187.73, 0.2053
187.84, 0.2004
187.94, 0.1955
188.04, 0.1955
188.14, 0.2004
188.24, 0.1955
188.34, 0.2004
188.44, 0.2004
188.54, 0.2004
188.64, 0.2004
188.75, 0.2004
188.84, 0.2102
188.95, 0.2102
189.20, 0.2102
189.21, 0.2151
